'Id: "" Comment: "" Operator: "Lab Manager" Anode: "Mo" Scantype: "Coupled TwoTheta/Theta" TimePerStep: "288" X: "9999" Y: "9999" Z: "9999" 
10.0000 0.000 0.343
10.0071 0.533 0.346
10.0143 0.070 0.343
10.0214 -0.046 0.342
10.0286 0.942 0.347
10.0357 -0.465 0.340
10.0429 0.103 0.342
10.0500 0.369 0.343
10.0572 -0.178 0.340
10.0643 0.328 0.342
10.0715 0.566 0.343
10.0786 0.537 0.343
10.0857 0.175 0.341
10.0929 0.173 0.340
10.1000 -0.384 0.337
10.1072 -0.157 0.338
10.1143 0.145 0.339
10.1215 0.062 0.339
10.1286 0.053 0.338
10.1358 -0.336 0.336
10.1429 -0.424 0.335
10.1500 0.348 0.339
10.1572 0.294 0.338
10.1643 0.289 0.338
10.1715 0.350 0.338
10.1786 -0.371 0.334
10.1858 0.155 0.337
10.1929 0.352 0.337
10.2001 -0.254 0.334
10.2072 -0.197 0.334
10.2144 0.030 0.335
10.2215 0.237 0.336
10.2286 0.135 0.335
10.2358 -0.537 0.332
10.2429 0.239 0.335
10.2501 -0.270 0.332
10.2572 0.486 0.336
10.2644 0.328 0.335
10.2715 -0.257 0.332
10.2787 -0.058 0.333
10.2858 -0.598 0.330
10.2930 0.744 0.336
10.3001 -0.261 0.331
10.3072 -0.325 0.330
10.3144 0.059 0.332
10.3215 0.071 0.332
10.3287 0.309 0.333
10.3358 -0.512 0.328
10.3430 0.236 0.332
10.3501 -0.276 0.329
10.3573 0.535 0.333
10.3644 -0.570 0.327
10.3715 -0.003 0.330
10.3787 0.010 0.330
10.3858 0.286 0.331
10.3930 0.107 0.330
10.4001 0.526 0.332
10.4073 -0.094 0.328
10.4144 -0.352 0.327
10.4216 0.085 0.329
10.4287 0.311 0.330
10.4359 -0.629 0.325
10.4430 -0.251 0.327
10.4501 0.055 0.328
10.4573 -0.236 0.326
10.4644 0.260 0.329
10.4716 0.049 0.328
10.4787 0.650 0.331
10.4859 -0.433 0.325
10.4930 0.060 0.327
10.5002 -0.075 0.326
10.5073 0.259 0.328
10.5145 0.349 0.328
10.5216 0.440 0.328
10.5287 0.149 0.327
10.5359 -0.139 0.325
10.5430 -0.021 0.326
10.5502 0.035 0.326
10.5573 0.265 0.327
10.5645 0.001 0.325
10.5716 0.158 0.326
10.5788 0.453 0.327
10.5859 0.797 0.329
10.5931 -0.463 0.322
10.6002 -0.230 0.323
10.6073 0.041 0.324
10.6145 0.708 0.328
10.6216 -0.041 0.324
10.6288 0.258 0.325
10.6359 0.251 0.325
10.6431 -0.804 0.319
10.6502 -0.250 0.322
10.6574 0.414 0.325
10.6645 0.100 0.323
10.6716 0.313 0.324
10.6788 -0.092 0.322
10.6859 0.642 0.326
10.6931 -0.356 0.320
10.7002 -0.320 0.320
10.7074 0.193 0.323
10.7145 0.098 0.322
10.7217 -0.066 0.321
10.7288 0.055 0.322
10.7360 0.391 0.324
10.7431 0.002 0.321
10.7502 0.133 0.322
10.7574 0.101 0.322
10.7645 -0.379 0.319
10.7717 0.061 0.321
10.7788 0.304 0.323
10.7860 0.303 0.323
10.7931 0.497 0.323
10.8003 -0.233 0.319
10.8074 0.454 0.323
10.8146 0.578 0.324
10.8217 0.279 0.322
10.8288 -0.500 0.318
10.8360 0.653 0.324
10.8431 0.617 0.324
10.8503 0.044 0.320
10.8574 -0.030 0.320
10.8646 0.167 0.321
10.8717 0.181 0.321
10.8789 0.576 0.323
10.8860 0.235 0.321
10.8931 0.398 0.322
10.9003 0.650 0.323
10.9074 0.355 0.321
10.9146 0.062 0.320
10.9217 -0.143 0.318
10.9289 0.134 0.320
10.9360 0.745 0.323
10.9432 -0.113 0.318
10.9503 0.556 0.322
10.9575 -0.156 0.318
10.9646 -0.001 0.319
10.9717 0.179 0.320
10.9789 0.165 0.319
10.9860 0.505 0.321
10.9932 -0.048 0.318
11.0003 0.365 0.320
11.0075 0.382 0.320
11.0146 0.412 0.320
11.0218 0.016 0.318
11.0289 0.696 0.322
11.0361 0.769 0.322
11.0432 0.126 0.318
11.0503 -0.316 0.316
11.0575 -0.539 0.314
11.0646 0.648 0.321
11.0718 0.412 0.320
11.0789 0.175 0.318
11.0861 0.810 0.321
11.0932 -0.090 0.316
11.1004 -0.177 0.316
11.1075 0.423 0.319
11.1146 0.332 0.319
11.1218 1.005 0.322
11.1289 0.665 0.320
11.1361 0.869 0.321
11.1432 0.157 0.317
11.1504 0.167 0.317
11.1575 -0.018 0.316
11.1647 0.652 0.320
11.1718 0.763 0.320
11.1790 0.068 0.316
11.1861 0.109 0.316
11.1932 0.744 0.320
11.2004 0.389 0.318
11.2075 0.458 0.318
11.2147 0.760 0.320
11.2218 0.753 0.319
11.2290 0.881 0.320
11.2361 0.797 0.319
11.2433 0.602 0.318
11.2504 0.699 0.319
11.2576 0.851 0.320
11.2647 0.934 0.320
11.2718 0.361 0.317
11.2790 0.718 0.318
11.2861 0.444 0.317
11.2933 0.530 0.317
11.3004 0.985 0.320
11.3076 0.703 0.318
11.3147 0.855 0.319
11.3219 0.529 0.317
11.3290 0.362 0.316
11.3362 1.018 0.319
11.3433 0.819 0.318
11.3504 -0.039 0.313
11.3576 0.899 0.318
11.3647 0.770 0.318
11.3719 1.388 0.321
11.3790 0.554 0.316
11.3862 0.682 0.317
11.3933 0.748 0.317
11.4005 1.095 0.319
11.4076 1.383 0.320
11.4147 0.900 0.318
11.4219 0.809 0.317
11.4290 1.056 0.318
11.4362 0.462 0.315
11.4433 0.805 0.317
11.4505 1.357 0.320
11.4576 1.173 0.319
11.4648 1.242 0.319
11.4719 0.981 0.317
11.4791 0.703 0.316
11.4862 1.627 0.321
11.4933 1.477 0.320
11.5005 1.116 0.318
11.5076 0.539 0.315
11.5148 1.237 0.318
11.5219 1.181 0.318
11.5291 1.296 0.318
11.5362 1.337 0.319
11.5434 1.042 0.317
11.5505 1.604 0.320
11.5577 1.531 0.319
11.5648 1.347 0.318
11.5719 1.138 0.317
11.5791 2.242 0.323
11.5862 1.589 0.319
11.5934 1.346 0.318
11.6005 1.582 0.319
11.6077 1.478 0.318
11.6148 1.721 0.320
11.6220 1.658 0.319
11.6291 1.321 0.317
11.6362 1.477 0.318
11.6434 1.345 0.317
11.6505 1.831 0.320
11.6577 1.366 0.317
11.6648 0.967 0.315
11.6720 1.894 0.320
11.6791 1.970 0.320
11.6863 1.796 0.319
11.6934 1.821 0.319
11.7006 1.904 0.319
11.7077 1.921 0.319
11.7148 1.307 0.316
11.7220 1.116 0.315
11.7291 1.751 0.318
11.7363 1.622 0.317
11.7434 1.779 0.318
11.7506 1.174 0.315
11.7577 2.692 0.323
11.7649 1.917 0.319
11.7720 2.358 0.321
11.7792 2.220 0.320
11.7863 1.820 0.318
11.7934 2.428 0.321
11.8006 1.720 0.317
11.8077 2.230 0.320
11.8149 2.206 0.320
11.8220 1.838 0.317
11.8292 2.425 0.321
11.8363 2.084 0.319
11.8435 2.314 0.320
11.8506 2.595 0.321
11.8577 2.133 0.319
11.8649 2.411 0.320
11.8720 1.748 0.316
11.8792 2.453 0.320
11.8863 2.602 0.321
11.8935 1.911 0.317
11.9006 2.582 0.320
11.9078 2.936 0.322
11.9149 2.412 0.319
11.9221 2.808 0.321
11.9292 2.839 0.321
11.9363 2.221 0.318
11.9435 2.488 0.319
11.9506 2.419 0.319
11.9578 2.360 0.319
11.9649 2.395 0.319
11.9721 2.482 0.319
11.9792 2.534 0.319
11.9864 2.236 0.317
11.9935 2.427 0.318
12.0007 2.247 0.317
12.0078 2.830 0.320
12.0149 2.282 0.317
12.0221 2.834 0.320
12.0292 2.532 0.318
12.0364 2.744 0.320
12.0435 2.932 0.320
12.0507 2.154 0.316
12.0578 3.654 0.324
12.0650 3.005 0.321
12.0721 2.811 0.319
12.0792 2.902 0.320
12.0864 2.114 0.315
12.0935 2.419 0.317
12.1007 3.493 0.323
12.1078 3.475 0.323
12.1150 3.097 0.320
12.1221 2.941 0.319
12.1293 3.508 0.322
12.1364 2.890 0.319
12.1436 2.907 0.319
12.1507 2.897 0.319
12.1578 2.991 0.319
12.1650 2.683 0.317
12.1721 2.704 0.318
12.1793 3.169 0.320
12.1864 3.006 0.319
12.1936 3.378 0.321
12.2007 3.285 0.320
12.2079 2.834 0.318
12.2150 3.851 0.323
12.2222 3.074 0.319
12.2293 3.668 0.322
12.2364 3.620 0.322
12.2436 3.381 0.320
12.2507 3.030 0.318
12.2579 3.315 0.320
12.2650 3.382 0.320
12.2722 3.788 0.322
12.2793 3.500 0.320
12.2865 3.230 0.319
12.2936 2.894 0.317
12.3008 3.988 0.323
12.3079 3.860 0.322
12.3150 3.093 0.318
12.3222 3.576 0.320
12.3293 3.576 0.320
12.3365 3.219 0.318
12.3436 3.761 0.321
12.3508 3.557 0.320
12.3579 3.217 0.318
12.3651 3.682 0.320
12.3722 3.981 0.322
12.3793 3.298 0.318
12.3865 3.531 0.319
12.3936 3.719 0.320
12.4008 3.716 0.320
12.4079 3.765 0.320
12.4151 3.766 0.320
12.4222 4.287 0.323
12.4294 4.100 0.322
12.4365 3.652 0.319
12.4437 3.851 0.320
12.4508 2.952 0.315
12.4579 3.512 0.318
12.4651 3.925 0.320
12.4722 4.082 0.321
12.4794 3.760 0.319
12.4865 3.837 0.319
12.4937 3.757 0.319
12.5008 3.921 0.320
12.5080 4.244 0.321
12.5151 3.839 0.319
12.5223 3.884 0.319
12.5294 3.833 0.319
12.5365 4.160 0.320
12.5437 3.824 0.319
12.5508 3.651 0.318
12.5580 3.728 0.318
12.5651 3.475 0.316
12.5723 3.982 0.319
12.5794 3.934 0.319
12.5866 3.449 0.316
12.5937 4.144 0.320
12.6008 4.690 0.322
12.6080 3.867 0.318
12.6151 4.062 0.319
12.6223 4.209 0.320
12.6294 4.182 0.319
12.6366 4.686 0.322
12.6437 3.957 0.318
12.6509 3.850 0.317
12.6580 3.566 0.316
12.6652 4.313 0.320
12.6723 4.443 0.320
12.6794 3.981 0.318
12.6866 3.808 0.317
12.6937 4.097 0.318
12.7009 4.744 0.321
12.7080 4.196 0.318
12.7152 4.624 0.321
12.7223 4.593 0.320
12.7295 3.934 0.317
12.7366 3.615 0.315
12.7438 4.588 0.320
12.7509 3.981 0.317
12.7580 3.715 0.315
12.7652 4.153 0.317
12.7723 4.505 0.319
12.7795 4.359 0.318
12.7866 3.885 0.316
12.7938 4.239 0.317
12.8009 4.504 0.319
12.8081 3.633 0.314
12.8152 3.839 0.315
12.8223 4.409 0.318
12.8295 4.410 0.318
12.8366 3.866 0.315
12.8438 4.498 0.318
12.8509 3.954 0.315
12.8581 4.642 0.319
12.8652 4.435 0.317
12.8724 4.634 0.318
12.8795 4.395 0.317
12.8867 4.094 0.315
12.8938 4.313 0.316
12.9009 5.158 0.321
12.9081 4.322 0.316
12.9152 4.389 0.317
12.9224 4.292 0.316
12.9295 4.873 0.319
12.9367 4.540 0.317
12.9438 4.104 0.315
12.9510 4.407 0.316
12.9581 4.304 0.315
12.9653 4.360 0.316
12.9724 4.725 0.318
12.9795 3.890 0.313
12.9867 4.422 0.316
12.9938 3.884 0.313
13.0010 4.396 0.315
13.0081 4.345 0.315
13.0153 4.609 0.316
13.0224 4.763 0.317
13.0296 4.316 0.315
13.0367 4.428 0.315
13.0439 4.249 0.314
13.0510 3.968 0.312
13.0581 4.455 0.315
13.0653 4.408 0.315
13.0724 4.259 0.314
13.0796 3.458 0.309
13.0867 4.352 0.314
13.0939 4.495 0.315
13.1010 3.815 0.311
13.1082 4.612 0.315
13.1153 4.234 0.313
13.1224 4.318 0.313
13.1296 4.406 0.314
13.1367 4.227 0.313
13.1439 4.325 0.313
13.1510 4.430 0.313
13.1582 4.573 0.314
13.1653 4.422 0.313
13.1725 4.291 0.312
13.1796 3.813 0.310
13.1868 4.550 0.314
13.1939 4.631 0.314
13.2010 4.597 0.314
13.2082 3.675 0.308
13.2153 4.287 0.312
13.2225 3.569 0.308
13.2296 3.785 0.309
13.2368 3.578 0.307
13.2439 4.427 0.312
13.2511 4.185 0.311
13.2582 4.554 0.313
13.2654 4.413 0.312
13.2725 4.480 0.312
13.2796 3.845 0.308
13.2868 3.996 0.309
13.2939 4.278 0.311
13.3011 4.113 0.309
13.3082 3.652 0.307
13.3154 4.841 0.313
13.3225 4.786 0.313
13.3297 4.332 0.310
13.3368 4.202 0.309
13.3439 3.967 0.308
13.3511 3.794 0.307
13.3582 3.966 0.308
13.3654 4.022 0.308
13.3725 4.079 0.308
13.3797 4.372 0.310
13.3868 3.811 0.307
13.3940 3.958 0.307
13.4011 3.553 0.305
13.4083 4.425 0.310
13.4154 4.132 0.308
13.4225 3.779 0.306
13.4297 4.315 0.309
13.4368 4.590 0.310
13.4440 3.911 0.306
13.4511 4.221 0.308
13.4583 3.986 0.306
13.4654 3.838 0.306
13.4726 4.197 0.307
13.4797 3.691 0.304
13.4869 3.672 0.304
13.4940 4.201 0.307
13.5011 4.112 0.307
13.5083 3.999 0.306
13.5154 3.260 0.301
13.5226 3.710 0.304
13.5297 3.971 0.305
13.5369 3.434 0.302
13.5440 3.349 0.302
13.5512 2.927 0.299
13.5583 4.036 0.305
13.5654 3.898 0.304
13.5726 4.004 0.305
13.5797 4.054 0.305
13.5869 4.017 0.305
13.5940 3.601 0.302
13.6012 3.405 0.301
13.6083 3.549 0.302
13.6155 3.276 0.300
13.6226 4.093 0.305
13.6298 3.671 0.302
13.6369 3.964 0.304
13.6440 4.080 0.304
13.6512 3.901 0.303
13.6583 3.294 0.300
13.6655 3.976 0.303
13.6726 3.311 0.299
13.6798 4.000 0.303
13.6869 3.526 0.300
13.6941 4.305 0.305
13.7012 3.480 0.300
13.7084 3.603 0.301
13.7155 3.757 0.301
13.7226 3.172 0.298
13.7298 3.212 0.298
13.7369 3.671 0.301
13.7441 3.725 0.301
13.7512 3.678 0.300
13.7584 3.606 0.300
13.7655 2.997 0.296
13.7727 3.130 0.297
13.7798 3.552 0.299
13.7869 3.328 0.298
13.7941 2.576 0.293
13.8012 2.907 0.295
13.8084 3.231 0.297
13.8155 3.639 0.299
13.8227 3.405 0.298
13.8298 3.295 0.297
13.8370 3.147 0.296
13.8441 3.229 0.296
13.8513 3.331 0.297
13.8584 3.200 0.296
13.8655 3.244 0.296
13.8727 3.256 0.296
13.8798 3.021 0.295
13.8870 2.884 0.294
13.8941 3.115 0.295
13.9013 3.411 0.296
13.9084 3.243 0.295
13.9156 2.935 0.293
13.9227 3.211 0.295
13.9299 3.081 0.294
13.9370 2.798 0.292
13.9441 3.088 0.294
13.9513 3.561 0.297
13.9584 3.355 0.295
13.9656 2.961 0.293
13.9727 2.681 0.291
13.9799 3.071 0.293
13.9870 3.622 0.296
13.9942 2.755 0.291
14.0013 2.632 0.290
14.0085 3.075 0.293
14.0156 2.708 0.291
14.0227 3.054 0.292
14.0299 2.416 0.289
14.0370 2.949 0.292
14.0442 2.944 0.291
14.0513 2.894 0.291
14.0585 3.409 0.294
14.0656 2.328 0.287
14.0728 2.392 0.288
14.0799 2.196 0.286
14.0870 2.621 0.289
14.0942 2.675 0.289
14.1013 2.517 0.288
14.1085 2.279 0.286
14.1156 3.218 0.292
14.1228 2.873 0.290
14.1299 2.722 0.289
14.1371 2.783 0.289
14.1442 2.538 0.287
14.1514 2.460 0.287
14.1585 3.035 0.290
14.1656 2.824 0.289
14.1728 2.983 0.290
14.1799 2.113 0.284
14.1871 2.208 0.285
14.1942 2.491 0.286
14.2014 2.719 0.288
14.2085 2.290 0.285
14.2157 2.632 0.287
14.2228 3.172 0.290
14.2300 2.160 0.284
14.2371 3.395 0.291
14.2442 2.358 0.285
14.2514 2.155 0.283
14.2585 2.063 0.283
14.2657 2.360 0.284
14.2728 3.053 0.288
14.2800 2.093 0.282
14.2871 2.515 0.285
14.2943 2.038 0.282
14.3014 1.918 0.281
14.3085 2.365 0.284
14.3157 2.214 0.283
14.3228 2.431 0.284
14.3300 1.971 0.281
14.3371 2.105 0.282
14.3443 2.166 0.282
14.3514 1.866 0.280
14.3586 2.066 0.281
14.3657 1.644 0.278
14.3729 1.931 0.280
14.3800 2.335 0.282
14.3871 2.150 0.281
14.3943 1.850 0.279
14.4014 2.157 0.281
14.4086 2.197 0.281
14.4157 2.078 0.280
14.4229 2.417 0.282
14.4300 1.880 0.279
14.4372 2.039 0.280
14.4443 1.718 0.277
14.4515 1.320 0.275
14.4586 1.513 0.276
14.4657 1.470 0.275
14.4729 1.927 0.278
14.4800 1.818 0.277
14.4872 2.046 0.279
14.4943 1.562 0.276
14.5015 2.102 0.279
14.5086 1.816 0.277
14.5158 2.179 0.279
14.5229 1.865 0.277
14.5300 1.530 0.275
14.5372 1.834 0.277
14.5443 1.392 0.274
14.5515 1.700 0.275
14.5586 1.993 0.277
14.5658 1.363 0.273
14.5729 1.563 0.274
14.5801 1.746 0.275
14.5872 1.779 0.275
14.5944 1.913 0.276
14.6015 1.370 0.273
14.6086 1.501 0.273
14.6158 1.583 0.274
14.6229 1.568 0.273
14.6301 1.671 0.274
14.6372 1.850 0.275
14.6444 1.414 0.272
14.6515 1.510 0.273
14.6587 1.485 0.272
14.6658 1.695 0.273
14.6730 1.225 0.270
14.6801 1.856 0.274
14.6872 1.646 0.273
14.6944 2.027 0.275
14.7015 1.178 0.270
14.7087 1.205 0.270
14.7158 1.349 0.270
14.7230 1.258 0.270
14.7301 1.458 0.271
14.7373 1.127 0.269
14.7444 1.351 0.270
14.7516 1.211 0.269
14.7587 1.265 0.269
14.7658 1.066 0.268
14.7730 1.121 0.268
14.7801 1.123 0.268
14.7873 0.997 0.267
14.7944 1.200 0.268
14.8016 0.956 0.266
14.8087 1.055 0.267
14.8159 1.113 0.267
14.8230 0.963 0.266
14.8301 0.861 0.265
14.8373 0.842 0.265
14.8444 1.008 0.266
14.8516 1.253 0.267
14.8587 1.342 0.268
14.8659 0.730 0.264
14.8730 1.097 0.266
14.8802 1.165 0.266
14.8873 1.490 0.268
14.8945 1.288 0.267
14.9016 0.617 0.262
14.9087 1.102 0.265
14.9159 0.305 0.260
14.9230 1.471 0.267
14.9302 0.501 0.261
14.9373 1.257 0.266
14.9445 0.315 0.259
14.9516 0.814 0.263
14.9588 0.458 0.260
14.9659 0.884 0.263
14.9731 1.008 0.264
14.9802 0.986 0.263
14.9873 0.923 0.263
14.9945 0.522 0.260
15.0016 0.928 0.263
15.0088 0.899 0.262
15.0159 0.880 0.262
15.0231 1.119 0.263
15.0302 0.597 0.260
15.0374 0.995 0.262
15.0445 0.703 0.260
15.0516 0.865 0.261
15.0588 0.558 0.259
15.0659 0.960 0.262
15.0731 0.771 0.260
15.0802 1.010 0.262
15.0874 0.478 0.258
15.0945 0.439 0.258
15.1017 0.785 0.260
15.1088 0.669 0.259
15.1160 0.710 0.259
15.1231 0.473 0.257
15.1302 0.333 0.256
15.1374 0.481 0.257
15.1445 0.647 0.258
15.1517 0.337 0.256
15.1588 0.406 0.256
15.1660 0.641 0.258
15.1731 0.692 0.258
15.1803 1.174 0.261
15.1874 0.822 0.258
15.1946 0.568 0.257
15.2017 1.011 0.259
15.2088 1.215 0.261
15.2160 1.051 0.259
15.2231 0.335 0.254
15.2303 0.570 0.256
15.2374 0.243 0.253
15.2446 0.266 0.254
15.2517 0.491 0.255
15.2589 0.799 0.257
15.2660 0.246 0.253
15.2731 0.443 0.254
15.2803 0.550 0.255
15.2874 0.198 0.252
15.2946 0.343 0.253
15.3017 0.547 0.254
15.3089 0.696 0.255
15.3160 0.601 0.254
15.3232 0.340 0.253
15.3303 0.082 0.251
15.3375 0.703 0.255
15.3446 0.227 0.251
15.3517 0.934 0.256
15.3589 0.437 0.252
15.3660 0.217 0.251
15.3732 -0.256 0.247
15.3803 0.483 0.252
15.3875 0.406 0.252
15.3946 0.263 0.251
15.4018 -0.189 0.247
15.4089 0.525 0.252
15.4161 0.347 0.251
15.4232 -0.289 0.246
15.4303 0.509 0.252
15.4375 0.283 0.250
15.4446 0.223 0.249
15.4518 0.396 0.250
15.4589 -0.185 0.246
15.4661 -0.075 0.247
15.4732 0.022 0.247
15.4804 0.480 0.250
15.4875 0.319 0.249
15.4946 -0.053 0.246
15.5018 -0.161 0.246
15.5089 0.272 0.248
15.5161 0.219 0.248
15.5232 0.323 0.249
15.5304 -0.216 0.245
15.5375 0.426 0.249
15.5447 0.501 0.249
15.5518 0.275 0.248
15.5590 0.417 0.248
15.5661 0.659 0.250
15.5732 0.631 0.250
15.5804 0.418 0.248
15.5875 0.077 0.245
15.5947 0.837 0.251
15.6018 0.392 0.247
15.6090 0.155 0.246
15.6161 0.134 0.245
15.6233 -0.169 0.243
15.6304 -0.242 0.242
15.6376 0.159 0.245
15.6447 0.093 0.245
15.6518 0.078 0.244
15.6590 0.084 0.244
15.6661 0.027 0.244
15.6733 -0.047 0.243
15.6804 0.018 0.244
15.6876 -0.173 0.242
15.6947 -0.088 0.243
15.7019 0.165 0.245
15.7090 0.109 0.244
15.7162 -0.101 0.243
15.7233 0.124 0.244
15.7304 -0.075 0.243
15.7376 0.265 0.245
15.7447 0.087 0.244
15.7519 0.398 0.246
15.7590 0.040 0.243
15.7662 -0.093 0.242
15.7733 -0.385 0.240
15.7805 0.326 0.245
15.7876 -0.175 0.241
15.7947 -0.218 0.241
15.8019 -0.083 0.242
15.8090 0.281 0.244
15.8162 -0.029 0.242
15.8233 -0.169 0.241
15.8305 -0.163 0.241
15.8376 0.020 0.242
15.8448 0.770 0.248
15.8519 0.130 0.243
15.8591 0.188 0.243
15.8662 0.632 0.246
15.8733 0.336 0.244
15.8805 0.186 0.243
15.8876 -0.270 0.240
15.8948 0.250 0.243
15.9019 0.308 0.244
15.9091 0.919 0.248
15.9162 0.689 0.246
15.9234 0.678 0.246
15.9305 1.104 0.249
15.9377 0.923 0.248
15.9448 1.325 0.250
15.9519 1.060 0.249
15.9591 1.695 0.253
15.9662 1.621 0.252
15.9734 1.572 0.252
15.9805 1.575 0.252
15.9877 1.501 0.251
15.9948 2.303 0.257
16.0020 1.962 0.254
16.0091 2.197 0.256
16.0162 2.280 0.256
16.0234 2.432 0.257
16.0305 2.987 0.261
16.0377 2.462 0.257
16.0448 2.513 0.258
16.0520 2.634 0.258
16.0591 3.272 0.263
16.0663 3.626 0.265
16.0734 3.163 0.262
16.0806 3.642 0.265
16.0877 3.454 0.264
16.0948 3.856 0.266
16.1020 3.862 0.266
16.1091 3.758 0.265
16.1163 3.757 0.265
16.1234 4.163 0.268
16.1306 3.398 0.263
16.1377 4.220 0.268
16.1449 3.887 0.266
16.1520 3.709 0.265
16.1592 3.903 0.266
16.1663 4.038 0.267
16.1734 4.065 0.267
16.1806 4.168 0.267
16.1877 3.980 0.266
16.1949 4.025 0.266
16.2020 3.948 0.266
16.2092 4.274 0.268
16.2163 3.957 0.266
16.2235 3.658 0.264
16.2306 4.054 0.266
16.2377 3.682 0.264
16.2449 3.778 0.264
16.2520 3.993 0.266
16.2592 3.413 0.262
16.2663 4.242 0.267
16.2735 3.391 0.261
16.2806 4.009 0.265
16.2878 3.932 0.265
16.2949 3.969 0.265
16.3021 4.420 0.268
16.3092 3.986 0.265
16.3163 4.892 0.271
16.3235 5.294 0.273
16.3306 4.995 0.271
16.3378 5.376 0.274
16.3449 6.341 0.280
16.3521 6.518 0.281
16.3592 6.590 0.281
16.3664 7.128 0.284
16.3735 7.551 0.287
16.3807 8.669 0.293
16.3878 9.884 0.301
16.3949 11.328 0.309
16.4021 12.220 0.314
16.4092 13.109 0.318
16.4164 13.448 0.320
16.4235 15.632 0.332
16.4307 15.580 0.331
16.4378 17.333 0.340
16.4450 18.378 0.346
16.4521 19.277 0.350
16.4593 20.137 0.354
16.4664 21.505 0.361
16.4735 22.071 0.364
16.4807 22.289 0.365
16.4878 26.035 0.382
16.4950 26.316 0.383
16.5021 28.844 0.394
16.5093 32.045 0.408
16.5164 33.857 0.416
16.5236 34.957 0.420
16.5307 36.961 0.429
16.5378 35.946 0.424
16.5450 34.005 0.416
16.5521 31.640 0.406
16.5593 27.553 0.388
16.5664 24.865 0.376
16.5736 22.053 0.363
16.5807 19.813 0.352
16.5879 17.653 0.341
16.5950 17.437 0.340
16.6022 16.364 0.334
16.6093 16.367 0.334
16.6164 16.940 0.337
16.6236 17.714 0.341
16.6307 17.662 0.341
16.6379 16.992 0.337
16.6450 15.738 0.331
16.6522 14.130 0.322
16.6593 12.369 0.312
16.6665 10.442 0.301
16.6736 8.612 0.291
16.6808 7.053 0.281
16.6879 5.379 0.271
16.6950 4.709 0.266
16.7022 4.639 0.266
16.7093 4.070 0.262
