'Id: "" Comment: "" Operator: "Lab Manager" Anode: "Mo" Scantype: "Coupled TwoTheta/Theta" TimePerStep: "288" X: "9999" Y: "9999" Z: "9999" 
10.0000 33.955 0.343
10.0071 34.431 0.346
10.0143 33.910 0.343
10.0214 33.736 0.342
10.0286 34.667 0.347
10.0357 33.201 0.340
10.0429 33.712 0.342
10.0500 33.920 0.343
10.0572 33.316 0.340
10.0643 33.764 0.342
10.0715 33.944 0.343
10.0786 33.858 0.343
10.0857 33.438 0.341
10.0929 33.378 0.340
10.1000 32.764 0.337
10.1072 32.920 0.338
10.1143 33.153 0.339
10.1215 33.000 0.339
10.1286 32.920 0.338
10.1358 32.462 0.336
10.1429 32.330 0.335
10.1500 33.059 0.339
10.1572 32.962 0.338
10.1643 32.913 0.338
10.1715 32.931 0.338
10.1786 32.167 0.334
10.1858 32.649 0.337
10.1929 32.802 0.337
10.2001 32.153 0.334
10.2072 32.167 0.334
10.2144 32.351 0.335
10.2215 32.514 0.336
10.2286 32.368 0.335
10.2358 31.653 0.332
10.2429 32.385 0.335
10.2501 31.833 0.332
10.2572 32.545 0.336
10.2644 32.344 0.335
10.2715 31.715 0.332
10.2787 31.872 0.333
10.2858 31.288 0.330
10.2930 32.587 0.336
10.3001 31.538 0.331
10.3072 31.431 0.330
10.3144 31.771 0.332
10.3215 31.740 0.332
10.3287 31.934 0.333
10.3358 31.069 0.328
10.3430 31.774 0.332
10.3501 31.219 0.329
10.3573 31.986 0.333
10.3644 30.837 0.327
10.3715 31.361 0.330
10.3787 31.330 0.330
10.3858 31.563 0.331
10.3930 31.340 0.330
10.4001 31.715 0.332
10.4073 31.052 0.328
10.4144 30.750 0.327
10.4216 31.156 0.329
10.4287 31.351 0.330
10.4359 30.378 0.325
10.4430 30.726 0.327
10.4501 31.000 0.328
10.4573 30.677 0.326
10.4644 31.142 0.329
10.4716 30.899 0.328
10.4787 31.469 0.331
10.4859 30.354 0.325
10.4930 30.816 0.327
10.5002 30.649 0.326
10.5073 30.951 0.328
10.5145 31.010 0.328
10.5216 31.069 0.328
10.5287 30.747 0.327
10.5359 30.427 0.325
10.5430 30.514 0.326
10.5502 30.538 0.326
10.5573 30.736 0.327
10.5645 30.441 0.325
10.5716 30.566 0.326
10.5788 30.830 0.327
10.5859 31.142 0.329
10.5931 29.851 0.322
10.6002 30.052 0.323
10.6073 30.292 0.324
10.6145 30.927 0.328
10.6216 30.146 0.324
10.6288 30.413 0.325
10.6359 30.375 0.325
10.6431 29.288 0.319
10.6502 29.813 0.322
10.6574 30.448 0.325
10.6645 30.104 0.323
10.6716 30.288 0.324
10.6788 29.854 0.322
10.6859 30.559 0.326
10.6931 29.531 0.320
10.7002 29.538 0.320
10.7074 30.035 0.323
10.7145 29.924 0.322
10.7217 29.743 0.321
10.7288 29.847 0.322
10.7360 30.167 0.324
10.7431 29.760 0.321
10.7502 29.875 0.322
10.7574 29.826 0.322
10.7645 29.330 0.319
10.7717 29.753 0.321
10.7788 29.979 0.323
10.7860 29.962 0.323
10.7931 30.139 0.323
10.8003 29.392 0.319
10.8074 30.063 0.323
10.8146 30.170 0.324
10.8217 29.854 0.322
10.8288 29.059 0.318
10.8360 30.194 0.324
10.8431 30.142 0.324
10.8503 29.552 0.320
10.8574 29.462 0.320
10.8646 29.642 0.321
10.8717 29.639 0.321
10.8789 30.017 0.323
10.8860 29.660 0.321
10.8931 29.806 0.322
10.9003 30.042 0.323
10.9074 29.729 0.321
10.9146 29.420 0.320
10.9217 29.198 0.318
10.9289 29.458 0.320
10.9360 30.052 0.323
10.9432 29.177 0.318
10.9503 29.830 0.322
10.9575 29.101 0.318
10.9646 29.240 0.319
10.9717 29.403 0.320
10.9789 29.372 0.319
10.9860 29.694 0.321
10.9932 29.125 0.318
11.0003 29.521 0.320
11.0075 29.521 0.320
11.0146 29.535 0.320
11.0218 29.122 0.318
11.0289 29.785 0.322
11.0361 29.840 0.322
11.0432 29.181 0.318
11.0503 28.722 0.316
11.0575 28.483 0.314
11.0646 29.653 0.321
11.0718 29.399 0.320
11.0789 29.146 0.318
11.0861 29.764 0.321
11.0932 28.847 0.316
11.1004 28.743 0.316
11.1075 29.326 0.319
11.1146 29.219 0.319
11.1218 29.875 0.322
11.1289 29.517 0.320
11.1361 29.705 0.321
11.1432 28.976 0.317
11.1504 28.969 0.317
11.1575 28.767 0.316
11.1647 29.420 0.320
11.1718 29.514 0.320
11.1790 28.802 0.316
11.1861 28.826 0.316
11.1932 29.444 0.320
11.2004 29.073 0.318
11.2075 29.125 0.318
11.2147 29.410 0.320
11.2218 29.385 0.319
11.2290 29.497 0.320
11.2361 29.396 0.319
11.2433 29.184 0.318
11.2504 29.264 0.319
11.2576 29.399 0.320
11.2647 29.465 0.320
11.2718 28.875 0.317
11.2790 29.215 0.318
11.2861 28.924 0.317
11.2933 28.993 0.317
11.3004 29.431 0.320
11.3076 29.132 0.318
11.3147 29.267 0.319
11.3219 28.924 0.317
11.3290 28.740 0.316
11.3362 29.378 0.319
11.3433 29.163 0.318
11.3504 28.288 0.313
11.3576 29.208 0.318
11.3647 29.063 0.318
11.3719 29.663 0.321
11.3790 28.813 0.316
11.3862 28.924 0.317
11.3933 28.972 0.317
11.4005 29.302 0.319
11.4076 29.573 0.320
11.4147 29.073 0.318
11.4219 28.965 0.317
11.4290 29.194 0.318
11.4362 28.583 0.315
11.4433 28.910 0.317
11.4505 29.444 0.320
11.4576 29.243 0.319
11.4648 29.295 0.319
11.4719 29.017 0.317
11.4791 28.722 0.316
11.4862 29.628 0.321
11.4933 29.462 0.320
11.5005 29.083 0.318
11.5076 28.490 0.315
11.5148 29.170 0.318
11.5219 29.097 0.318
11.5291 29.194 0.318
11.5362 29.219 0.319
11.5434 28.906 0.317
11.5505 29.451 0.320
11.5577 29.361 0.319
11.5648 29.160 0.318
11.5719 28.934 0.317
11.5791 30.021 0.323
11.5862 29.351 0.319
11.5934 29.090 0.318
11.6005 29.309 0.319
11.6077 29.188 0.318
11.6148 29.413 0.320
11.6220 29.333 0.319
11.6291 28.979 0.317
11.6362 29.118 0.318
11.6434 28.969 0.317
11.6505 29.438 0.320
11.6577 28.955 0.317
11.6648 28.538 0.315
11.6720 29.448 0.320
11.6791 29.507 0.320
11.6863 29.316 0.319
11.6934 29.323 0.319
11.7006 29.389 0.319
11.7077 29.389 0.319
11.7148 28.757 0.316
11.7220 28.549 0.315
11.7291 29.167 0.318
11.7363 29.021 0.317
11.7434 29.160 0.318
11.7506 28.538 0.315
11.7577 30.038 0.323
11.7649 29.247 0.319
11.7720 29.670 0.321
11.7792 29.514 0.320
11.7863 29.097 0.318
11.7934 29.688 0.321
11.8006 28.962 0.317
11.8077 29.455 0.320
11.8149 29.413 0.320
11.8220 29.028 0.317
11.8292 29.597 0.321
11.8363 29.240 0.319
11.8435 29.451 0.320
11.8506 29.715 0.321
11.8577 29.236 0.319
11.8649 29.497 0.320
11.8720 28.816 0.316
11.8792 29.503 0.320
11.8863 29.635 0.321
11.8935 28.927 0.317
11.9006 29.580 0.320
11.9078 29.917 0.322
11.9149 29.375 0.319
11.9221 29.753 0.321
11.9292 29.767 0.321
11.9363 29.132 0.318
11.9435 29.382 0.319
11.9506 29.295 0.319
11.9578 29.219 0.319
11.9649 29.236 0.319
11.9721 29.306 0.319
11.9792 29.340 0.319
11.9864 29.024 0.317
11.9935 29.198 0.318
12.0007 29.000 0.317
12.0078 29.566 0.320
12.0149 29.000 0.317
12.0221 29.535 0.320
12.0292 29.215 0.318
12.0364 29.410 0.320
12.0435 29.580 0.320
12.0507 28.785 0.316
12.0578 30.267 0.324
12.0650 29.601 0.321
12.0721 29.389 0.319
12.0792 29.462 0.320
12.0864 28.656 0.315
12.0935 28.944 0.317
12.1007 30.000 0.323
12.1078 29.965 0.323
12.1150 29.569 0.320
12.1221 29.396 0.319
12.1293 29.944 0.322
12.1364 29.309 0.319
12.1436 29.309 0.319
12.1507 29.281 0.319
12.1578 29.358 0.319
12.1650 29.031 0.317
12.1721 29.035 0.318
12.1793 29.483 0.320
12.1864 29.302 0.319
12.1936 29.656 0.321
12.2007 29.545 0.320
12.2079 29.076 0.318
12.2150 30.076 0.323
12.2222 29.281 0.319
12.2293 29.858 0.322
12.2364 29.792 0.322
12.2436 29.535 0.320
12.2507 29.167 0.318
12.2579 29.434 0.320
12.2650 29.483 0.320
12.2722 29.872 0.322
12.2793 29.566 0.320
12.2865 29.278 0.319
12.2936 28.924 0.317
12.3008 30.000 0.323
12.3079 29.854 0.322
12.3150 29.069 0.318
12.3222 29.535 0.320
12.3293 29.517 0.320
12.3365 29.142 0.318
12.3436 29.667 0.321
12.3508 29.444 0.320
12.3579 29.087 0.318
12.3651 29.535 0.320
12.3722 29.816 0.322
12.3793 29.115 0.318
12.3865 29.330 0.319
12.3936 29.500 0.320
12.4008 29.479 0.320
12.4079 29.510 0.320
12.4151 29.493 0.320
12.4222 29.997 0.323
12.4294 29.792 0.322
12.4365 29.326 0.319
12.4437 29.507 0.320
12.4508 28.590 0.315
12.4579 29.132 0.318
12.4651 29.528 0.320
12.4722 29.667 0.321
12.4794 29.326 0.319
12.4865 29.385 0.319
12.4937 29.288 0.319
12.5008 29.434 0.320
12.5080 29.740 0.321
12.5151 29.316 0.319
12.5223 29.344 0.319
12.5294 29.274 0.319
12.5365 29.583 0.320
12.5437 29.229 0.319
12.5508 29.038 0.318
12.5580 29.097 0.318
12.5651 28.826 0.316
12.5723 29.316 0.319
12.5794 29.250 0.319
12.5866 28.747 0.316
12.5937 29.424 0.320
12.6008 29.951 0.322
12.6080 29.111 0.318
12.6151 29.288 0.319
12.6223 29.417 0.320
12.6294 29.372 0.319
12.6366 29.858 0.322
12.6437 29.111 0.318
12.6509 28.986 0.317
12.6580 28.684 0.316
12.6652 29.413 0.320
12.6723 29.524 0.320
12.6794 29.045 0.318
12.6866 28.854 0.317
12.6937 29.125 0.318
12.7009 29.753 0.321
12.7080 29.188 0.318
12.7152 29.597 0.321
12.7223 29.549 0.320
12.7295 28.872 0.317
12.7366 28.535 0.315
12.7438 29.490 0.320
12.7509 28.865 0.317
12.7580 28.580 0.315
12.7652 29.000 0.317
12.7723 29.333 0.319
12.7795 29.170 0.318
12.7866 28.677 0.316
12.7938 29.014 0.317
12.8009 29.260 0.319
12.8081 28.372 0.314
12.8152 28.559 0.315
12.8223 29.111 0.318
12.8295 29.094 0.318
12.8366 28.531 0.315
12.8438 29.146 0.318
12.8509 28.583 0.315
12.8581 29.253 0.319
12.8652 29.028 0.317
12.8724 29.208 0.318
12.8795 28.951 0.317
12.8867 28.632 0.315
12.8938 28.833 0.316
12.9009 29.660 0.321
12.9081 28.806 0.316
12.9152 28.854 0.317
12.9224 28.740 0.316
12.9295 29.302 0.319
12.9367 28.951 0.317
12.9438 28.497 0.315
12.9510 28.781 0.316
12.9581 28.660 0.315
12.9653 28.698 0.316
12.9724 29.045 0.318
12.9795 28.191 0.313
12.9867 28.705 0.316
12.9938 28.149 0.313
13.0010 28.642 0.315
13.0081 28.573 0.315
13.0153 28.819 0.316
13.0224 28.955 0.317
13.0296 28.490 0.315
13.0367 28.583 0.315
13.0439 28.385 0.314
13.0510 28.087 0.312
13.0581 28.556 0.315
13.0653 28.490 0.315
13.0724 28.323 0.314
13.0796 27.503 0.309
13.0867 28.378 0.314
13.0939 28.503 0.315
13.1010 27.806 0.311
13.1082 28.583 0.315
13.1153 28.188 0.313
13.1224 28.253 0.313
13.1296 28.323 0.314
13.1367 28.125 0.313
13.1439 28.205 0.313
13.1510 28.292 0.313
13.1582 28.417 0.314
13.1653 28.247 0.313
13.1725 28.097 0.312
13.1796 27.601 0.310
13.1868 28.319 0.314
13.1939 28.382 0.314
13.2010 28.330 0.314
13.2082 27.389 0.308
13.2153 27.983 0.312
13.2225 27.247 0.308
13.2296 27.444 0.309
13.2368 27.219 0.307
13.2439 28.049 0.312
13.2511 27.788 0.311
13.2582 28.139 0.313
13.2654 27.979 0.312
13.2725 28.028 0.312
13.2796 27.375 0.308
13.2868 27.507 0.309
13.2939 27.771 0.311
13.3011 27.587 0.309
13.3082 27.108 0.307
13.3154 28.278 0.313
13.3225 28.205 0.313
13.3297 27.733 0.310
13.3368 27.583 0.309
13.3439 27.330 0.308
13.3511 27.139 0.307
13.3582 27.292 0.308
13.3654 27.330 0.308
13.3725 27.368 0.308
13.3797 27.642 0.310
13.3868 27.063 0.307
13.3940 27.191 0.307
13.4011 26.767 0.305
13.4083 27.622 0.310
13.4154 27.309 0.308
13.4225 26.938 0.306
13.4297 27.455 0.309
13.4368 27.712 0.310
13.4440 27.014 0.306
13.4511 27.306 0.308
13.4583 27.052 0.306
13.4654 26.885 0.306
13.4726 27.226 0.307
13.4797 26.701 0.304
13.4869 26.663 0.304
13.4940 27.174 0.307
13.5011 27.066 0.307
13.5083 26.934 0.306
13.5154 26.177 0.301
13.5226 26.608 0.304
13.5297 26.851 0.305
13.5369 26.295 0.302
13.5440 26.191 0.302
13.5512 25.750 0.299
13.5583 26.840 0.305
13.5654 26.684 0.304
13.5726 26.771 0.305
13.5797 26.802 0.305
13.5869 26.747 0.305
13.5940 26.313 0.302
13.6012 26.097 0.301
13.6083 26.222 0.302
13.6155 25.931 0.300
13.6226 26.729 0.305
13.6298 26.288 0.302
13.6369 26.563 0.304
13.6440 26.660 0.304
13.6512 26.462 0.303
13.6583 25.837 0.300
13.6655 26.500 0.303
13.6726 25.816 0.299
13.6798 26.486 0.303
13.6869 25.993 0.300
13.6941 26.753 0.305
13.7012 25.910 0.300
13.7084 26.014 0.301
13.7155 26.149 0.301
13.7226 25.545 0.298
13.7298 25.566 0.298
13.7369 26.007 0.301
13.7441 26.042 0.301
13.7512 25.976 0.300
13.7584 25.885 0.300
13.7655 25.257 0.296
13.7727 25.372 0.297
13.7798 25.774 0.299
13.7869 25.531 0.298
13.7941 24.760 0.293
13.8012 25.073 0.295
13.8084 25.378 0.297
13.8155 25.767 0.299
13.8227 25.514 0.298
13.8298 25.385 0.297
13.8370 25.219 0.296
13.8441 25.281 0.296
13.8513 25.365 0.297
13.8584 25.215 0.296
13.8655 25.240 0.296
13.8727 25.233 0.296
13.8798 24.979 0.295
13.8870 24.823 0.294
13.8941 25.035 0.295
13.9013 25.313 0.296
13.9084 25.125 0.295
13.9156 24.799 0.293
13.9227 25.056 0.295
13.9299 24.906 0.294
13.9370 24.604 0.292
13.9441 24.875 0.294
13.9513 25.330 0.297
13.9584 25.104 0.295
13.9656 24.691 0.293
13.9727 24.392 0.291
13.9799 24.764 0.293
13.9870 25.295 0.296
13.9942 24.410 0.291
14.0013 24.267 0.290
14.0085 24.691 0.293
14.0156 24.306 0.291
14.0227 24.632 0.292
14.0299 23.976 0.289
14.0370 24.490 0.292
14.0442 24.465 0.291
14.0513 24.396 0.291
14.0585 24.892 0.294
14.0656 23.792 0.287
14.0728 23.837 0.288
14.0799 23.622 0.286
14.0870 24.028 0.289
14.0942 24.063 0.289
14.1013 23.885 0.288
14.1085 23.628 0.286
14.1156 24.549 0.292
14.1228 24.184 0.290
14.1299 24.014 0.289
14.1371 24.056 0.289
14.1442 23.792 0.287
14.1514 23.694 0.287
14.1585 24.250 0.290
14.1656 24.021 0.289
14.1728 24.160 0.290
14.1799 23.271 0.284
14.1871 23.347 0.285
14.1942 23.611 0.286
14.2014 23.819 0.288
14.2085 23.372 0.285
14.2157 23.694 0.287
14.2228 24.215 0.290
14.2300 23.184 0.284
14.2371 24.399 0.291
14.2442 23.344 0.285
14.2514 23.122 0.283
14.2585 23.010 0.283
14.2657 23.288 0.284
14.2728 23.962 0.288
14.2800 22.983 0.282
14.2871 23.385 0.285
14.2943 22.889 0.282
14.3014 22.750 0.281
14.3085 23.177 0.284
14.3157 23.007 0.283
14.3228 23.205 0.284
14.3300 22.726 0.281
14.3371 22.840 0.282
14.3443 22.882 0.282
14.3514 22.563 0.280
14.3586 22.743 0.281
14.3657 22.302 0.278
14.3729 22.569 0.280
14.3800 22.955 0.282
14.3871 22.750 0.281
14.3943 22.431 0.279
14.4014 22.719 0.281
14.4086 22.740 0.281
14.4157 22.601 0.280
14.4229 22.920 0.282
14.4300 22.365 0.279
14.4372 22.503 0.280
14.4443 22.163 0.277
14.4515 21.747 0.275
14.4586 21.920 0.276
14.4657 21.858 0.275
14.4729 22.295 0.278
14.4800 22.167 0.277
14.4872 22.375 0.279
14.4943 21.872 0.276
14.5015 22.392 0.279
14.5086 22.087 0.277
14.5158 22.431 0.279
14.5229 22.097 0.277
14.5300 21.743 0.275
14.5372 22.028 0.277
14.5443 21.566 0.274
14.5515 21.854 0.275
14.5586 22.128 0.277
14.5658 21.479 0.273
14.5729 21.660 0.274
14.5801 21.823 0.275
14.5872 21.837 0.275
14.5944 21.951 0.276
14.6015 21.389 0.273
14.6086 21.500 0.273
14.6158 21.563 0.274
14.6229 21.528 0.273
14.6301 21.611 0.274
14.6372 21.771 0.275
14.6444 21.316 0.272
14.6515 21.392 0.273
14.6587 21.347 0.272
14.6658 21.538 0.273
14.6730 21.049 0.270
14.6801 21.660 0.274
14.6872 21.431 0.273
14.6944 21.792 0.275
14.7015 20.924 0.270
14.7087 20.931 0.270
14.7158 21.056 0.270
14.7230 20.944 0.270
14.7301 21.125 0.271
14.7373 20.774 0.269
14.7444 20.979 0.270
14.7516 20.819 0.269
14.7587 20.854 0.269
14.7658 20.635 0.268
14.7730 20.670 0.268
14.7801 20.653 0.268
14.7873 20.507 0.267
14.7944 20.691 0.268
14.8016 20.427 0.266
14.8087 20.507 0.267
14.8159 20.545 0.267
14.8230 20.375 0.266
14.8301 20.253 0.265
14.8373 20.215 0.265
14.8444 20.361 0.266
14.8516 20.587 0.267
14.8587 20.656 0.268
14.8659 20.024 0.264
14.8730 20.372 0.266
14.8802 20.420 0.266
14.8873 20.726 0.268
14.8945 20.503 0.267
14.9016 19.813 0.262
14.9087 20.278 0.265
14.9159 19.462 0.260
14.9230 20.608 0.267
14.9302 19.618 0.261
14.9373 20.354 0.266
14.9445 19.392 0.259
14.9516 19.872 0.263
14.9588 19.497 0.260
14.9659 19.903 0.263
14.9731 20.007 0.264
14.9802 19.965 0.263
14.9873 19.882 0.263
14.9945 19.462 0.260
15.0016 19.847 0.263
15.0088 19.799 0.262
15.0159 19.760 0.262
15.0231 19.979 0.263
15.0302 19.438 0.260
15.0374 19.816 0.262
15.0445 19.503 0.260
15.0516 19.646 0.261
15.0588 19.319 0.259
15.0659 19.701 0.262
15.0731 19.493 0.260
15.0802 19.712 0.262
15.0874 19.160 0.258
15.0945 19.101 0.258
15.1017 19.427 0.260
15.1088 19.292 0.259
15.1160 19.313 0.259
15.1231 19.056 0.257
15.1302 18.896 0.256
15.1374 19.024 0.257
15.1445 19.170 0.258
15.1517 18.840 0.256
15.1588 18.889 0.256
15.1660 19.104 0.258
15.1731 19.135 0.258
15.1803 19.597 0.261
15.1874 19.226 0.258
15.1946 18.951 0.257
15.2017 19.375 0.259
15.2088 19.559 0.261
15.2160 19.375 0.259
15.2231 18.639 0.254
15.2303 18.854 0.256
15.2374 18.507 0.253
15.2446 18.510 0.254
15.2517 18.715 0.255
15.2589 19.003 0.257
15.2660 18.431 0.253
15.2731 18.608 0.254
15.2803 18.694 0.255
15.2874 18.323 0.252
15.2946 18.448 0.253
15.3017 18.632 0.254
15.3089 18.760 0.255
15.3160 18.646 0.254
15.3232 18.365 0.253
15.3303 18.087 0.251
15.3375 18.688 0.255
15.3446 18.191 0.251
15.3517 18.878 0.256
15.3589 18.361 0.252
15.3660 18.122 0.251
15.3732 17.628 0.247
15.3803 18.347 0.252
15.3875 18.250 0.252
15.3946 18.087 0.251
15.4018 17.615 0.247
15.4089 18.309 0.252
15.4161 18.111 0.251
15.4232 17.455 0.246
15.4303 18.233 0.252
15.4375 17.986 0.250
15.4446 17.906 0.249
15.4518 18.059 0.250
15.4589 17.458 0.246
15.4661 17.549 0.247
15.4732 17.625 0.247
15.4804 18.063 0.250
15.4875 17.882 0.249
15.4946 17.490 0.246
15.5018 17.361 0.246
15.5089 17.774 0.248
15.5161 17.701 0.248
15.5232 17.785 0.249
15.5304 17.226 0.245
15.5375 17.847 0.249
15.5447 17.903 0.249
15.5518 17.656 0.248
15.5590 17.778 0.248
15.5661 18.000 0.250
15.5732 17.951 0.250
15.5804 17.719 0.248
15.5875 17.358 0.245
15.5947 18.097 0.251
15.6018 17.632 0.247
15.6090 17.375 0.246
15.6161 17.333 0.245
15.6233 17.010 0.243
15.6304 16.917 0.242
15.6376 17.309 0.245
15.6447 17.233 0.245
15.6518 17.208 0.244
15.6590 17.205 0.244
15.6661 17.139 0.244
15.6733 17.056 0.243
15.6804 17.111 0.244
15.6876 16.910 0.242
15.6947 16.986 0.243
15.7019 17.229 0.245
15.7090 17.163 0.244
15.7162 16.944 0.243
15.7233 17.160 0.244
15.7304 16.951 0.243
15.7376 17.281 0.245
15.7447 17.094 0.244
15.7519 17.396 0.246
15.7590 17.028 0.243
15.7662 16.885 0.242
15.7733 16.583 0.240
15.7805 17.285 0.245
15.7876 16.774 0.241
15.7947 16.722 0.241
15.8019 16.847 0.242
15.8090 17.201 0.244
15.8162 16.882 0.242
15.8233 16.733 0.241
15.8305 16.729 0.241
15.8376 16.903 0.242
15.8448 17.642 0.248
15.8519 16.993 0.243
15.8591 17.042 0.243
15.8662 17.476 0.246
15.8733 17.170 0.244
15.8805 17.010 0.243
15.8876 16.545 0.240
15.8948 17.056 0.243
15.9019 17.104 0.244
15.9091 17.705 0.248
15.9162 17.465 0.246
15.9234 17.444 0.246
15.9305 17.861 0.249
15.9377 17.670 0.248
15.9448 18.063 0.250
15.9519 17.788 0.249
15.9591 18.413 0.253
15.9662 18.330 0.252
15.9734 18.271 0.252
15.9805 18.264 0.252
15.9877 18.181 0.251
15.9948 18.972 0.257
16.0020 18.622 0.254
16.0091 18.847 0.256
16.0162 18.920 0.256
16.0234 19.063 0.257
16.0305 19.608 0.261
16.0377 19.073 0.257
16.0448 19.115 0.258
16.0520 19.226 0.258
16.0591 19.854 0.263
16.0663 20.198 0.265
16.0734 19.726 0.262
16.0806 20.194 0.265
16.0877 19.997 0.264
16.0948 20.389 0.266
16.1020 20.385 0.266
16.1091 20.271 0.265
16.1163 20.260 0.265
16.1234 20.656 0.268
16.1306 19.882 0.263
16.1377 20.694 0.268
16.1449 20.351 0.266
16.1520 20.163 0.265
16.1592 20.347 0.266
16.1663 20.472 0.267
16.1734 20.490 0.267
16.1806 20.583 0.267
16.1877 20.385 0.266
16.1949 20.420 0.266
16.2020 20.333 0.266
16.2092 20.649 0.268
16.2163 20.323 0.266
16.2235 20.014 0.264
16.2306 20.399 0.266
16.2377 20.017 0.264
16.2449 20.104 0.264
16.2520 20.309 0.266
16.2592 19.719 0.262
16.2663 20.538 0.267
16.2735 19.677 0.261
16.2806 20.285 0.265
16.2878 20.198 0.265
16.2949 20.226 0.265
16.3021 20.667 0.268
16.3092 20.222 0.265
16.3163 21.118 0.271
16.3235 21.510 0.273
16.3306 21.201 0.271
16.3378 21.573 0.274
16.3449 22.528 0.280
16.3521 22.694 0.281
16.3592 22.757 0.281
16.3664 23.285 0.284
16.3735 23.698 0.287
16.3807 24.806 0.293
16.3878 26.010 0.301
16.3949 27.444 0.309
16.4021 28.326 0.314
16.4092 29.205 0.318
16.4164 29.535 0.320
16.4235 31.708 0.332
16.4307 31.646 0.331
16.4378 33.389 0.340
