'Id: "" Comment: "" Operator: "Lab Manager" Anode: "Mo" Scantype: "Coupled TwoTheta/Theta" TimePerStep: "1536" X: "9999" Y: "9999" Z: "9999" 
4.0000 110.371 0.268
4.0051 109.929 0.268
4.0102 109.003 0.266
4.0153 110.493 0.268
4.0204 110.904 0.269
4.0255 110.018 0.268
4.0306 111.035 0.269
4.0357 111.136 0.269
4.0408 109.501 0.267
4.0459 110.971 0.269
4.0510 111.750 0.270
4.0561 110.723 0.268
4.0612 111.564 0.270
4.0663 111.731 0.270
4.0715 111.195 0.269
4.0766 112.193 0.270
4.0817 112.337 0.270
4.0868 110.978 0.269
4.0919 112.566 0.271
4.0970 113.095 0.271
4.1021 111.796 0.270
4.1072 113.055 0.271
4.1123 112.924 0.271
4.1174 111.941 0.270
4.1225 113.810 0.272
4.1276 112.816 0.271
4.1327 112.398 0.271
4.1378 113.798 0.272
4.1429 113.980 0.272
4.1480 112.922 0.271
4.1531 114.344 0.273
4.1582 114.137 0.273
4.1633 113.949 0.272
4.1684 115.085 0.274
4.1735 114.607 0.273
4.1786 114.083 0.273
4.1837 115.023 0.274
4.1888 115.501 0.274
4.1939 114.341 0.273
4.1990 115.428 0.274
4.2041 115.868 0.275
4.2093 115.530 0.274
4.2144 116.074 0.275
4.2195 116.275 0.275
4.2246 115.877 0.275
4.2297 116.176 0.275
4.2348 116.630 0.276
4.2399 116.452 0.275
4.2450 116.895 0.276
4.2501 117.443 0.277
4.2552 116.854 0.276
4.2603 117.425 0.276
4.2654 118.133 0.277
4.2705 117.548 0.277
4.2756 118.421 0.278
4.2807 118.770 0.278
4.2858 117.491 0.277
4.2909 118.349 0.278
4.2960 119.484 0.279
4.3011 118.108 0.277
4.3062 119.026 0.278
4.3113 119.497 0.279
4.3164 118.577 0.278
4.3215 119.627 0.279
4.3266 120.141 0.280
4.3317 119.871 0.279
4.3368 120.219 0.280
4.3419 120.763 0.280
4.3471 120.077 0.280
4.3522 120.307 0.280
4.3573 121.520 0.281
4.3624 121.465 0.281
4.3675 121.396 0.281
4.3726 121.710 0.281
4.3777 121.795 0.282
4.3828 121.772 0.282
4.3879 122.611 0.283
4.3930 122.109 0.282
4.3981 122.321 0.282
4.4032 122.924 0.283
4.4083 122.932 0.283
4.4134 122.561 0.282
4.4185 123.779 0.284
4.4236 123.492 0.284
4.4287 123.482 0.284
4.4338 124.391 0.285
4.4389 123.982 0.284
4.4440 123.574 0.284
4.4491 124.943 0.285
4.4542 125.152 0.285
4.4593 124.739 0.285
4.4644 126.186 0.287
4.4695 125.491 0.286
4.4746 124.973 0.285
4.4797 125.995 0.286
4.4849 126.728 0.287
4.4900 126.033 0.286
4.4951 127.226 0.288
4.5002 127.115 0.288
4.5053 126.749 0.287
4.5104 127.962 0.289
4.5155 127.068 0.288
4.5206 127.072 0.288
4.5257 128.512 0.289
4.5308 128.879 0.290
4.5359 127.834 0.288
4.5410 129.025 0.290
4.5461 128.892 0.290
4.5512 128.912 0.290
4.5563 129.956 0.291
4.5614 130.106 0.291
4.5665 129.733 0.291
4.5716 130.662 0.292
4.5767 130.023 0.291
4.5818 129.942 0.291
4.5869 131.796 0.293
4.5920 131.939 0.293
4.5971 130.989 0.292
4.6022 132.693 0.294
4.6073 131.986 0.293
4.6124 131.913 0.293
4.6175 132.799 0.294
4.6227 132.905 0.294
4.6278 132.268 0.293
4.6329 133.915 0.295
4.6380 133.679 0.295
4.6431 133.201 0.294
4.6482 134.583 0.296
4.6533 134.154 0.296
4.6584 133.303 0.295
4.6635 135.148 0.297
4.6686 134.940 0.296
4.6737 134.301 0.296
4.6788 136.521 0.298
4.6839 136.015 0.298
4.6890 135.878 0.297
4.6941 136.732 0.298
4.6992 136.729 0.298
4.7043 136.161 0.298
4.7094 137.399 0.299
4.7145 137.387 0.299
4.7196 137.005 0.299
4.7247 138.711 0.301
4.7298 138.169 0.300
4.7349 137.037 0.299
4.7400 139.589 0.301
4.7451 139.371 0.301
4.7502 138.245 0.300
4.7553 140.724 0.303
4.7605 140.291 0.302
4.7656 139.496 0.301
4.7707 141.335 0.303
4.7758 140.296 0.302
4.7809 140.529 0.302
4.7860 141.385 0.303
4.7911 141.919 0.304
4.7962 141.033 0.303
4.8013 143.015 0.305
4.8064 142.808 0.305
4.8115 141.921 0.304
4.8166 143.805 0.306
4.8217 143.231 0.305
4.8268 142.493 0.305
4.8319 144.758 0.307
4.8370 144.729 0.307
4.8421 143.046 0.305
4.8472 145.334 0.308
4.8523 145.038 0.307
4.8574 144.225 0.306
4.8625 147.008 0.309
4.8676 146.526 0.309
4.8727 145.124 0.307
4.8778 147.155 0.310
4.8829 146.882 0.309
4.8880 145.913 0.308
4.8931 147.637 0.310
4.8983 148.282 0.311
4.9034 146.733 0.309
4.9085 149.063 0.312
4.9136 149.131 0.312
4.9187 147.544 0.310
4.9238 150.411 0.313
4.9289 149.872 0.312
4.9340 148.949 0.311
4.9391 150.740 0.313
4.9442 150.652 0.313
4.9493 150.296 0.313
4.9544 152.234 0.315
4.9595 151.409 0.314
4.9646 150.396 0.313
4.9697 152.853 0.315
4.9748 152.050 0.315
4.9799 151.521 0.314
4.9850 154.059 0.317
4.9901 153.268 0.316
4.9952 152.335 0.315
5.0003 154.719 0.317
5.0054 154.070 0.317
5.0105 152.675 0.315
5.0156 155.184 0.318
5.0207 155.234 0.318
5.0258 153.880 0.317
5.0309 156.464 0.319
5.0361 155.988 0.319
5.0412 155.134 0.318
5.0463 156.820 0.320
5.0514 157.040 0.320
5.0565 155.794 0.318
5.0616 157.865 0.321
5.0667 157.476 0.320
5.0718 156.464 0.319
5.0769 158.928 0.322
5.0820 158.424 0.321
5.0871 157.335 0.320
5.0922 159.781 0.323
5.0973 158.432 0.321
5.1024 157.670 0.320
5.1075 160.880 0.324
5.1126 160.427 0.323
5.1177 158.738 0.321
5.1228 161.530 0.324
5.1279 161.126 0.324
5.1330 159.550 0.322
5.1381 162.272 0.325
5.1432 162.344 0.325
5.1483 160.122 0.323
5.1534 162.995 0.326
5.1585 163.242 0.326
5.1636 161.704 0.324
5.1687 163.590 0.326
5.1739 163.507 0.326
5.1790 162.284 0.325
5.1841 164.496 0.327
5.1892 163.985 0.327
5.1943 163.093 0.326
5.1994 165.627 0.328
5.2045 165.243 0.328
5.2096 163.906 0.327
5.2147 165.838 0.329
5.2198 166.285 0.329
5.2249 164.471 0.327
5.2300 167.281 0.330
5.2351 166.669 0.329
5.2402 165.403 0.328
5.2453 167.519 0.330
5.2504 166.874 0.330
5.2555 165.660 0.328
5.2606 167.715 0.330
5.2657 168.101 0.331
5.2708 167.026 0.330
5.2759 168.875 0.332
5.2810 168.467 0.331
5.2861 167.327 0.330
5.2912 169.392 0.332
5.2963 169.754 0.332
5.3014 168.280 0.331
5.3065 169.310 0.332
5.3117 169.464 0.332
5.3168 169.547 0.332
5.3219 170.232 0.333
5.3270 170.777 0.333
5.3321 169.325 0.332
5.3372 170.658 0.333
5.3423 171.636 0.334
5.3474 170.282 0.333
5.3525 171.695 0.334
5.3576 172.165 0.335
5.3627 170.693 0.333
5.3678 172.189 0.335
5.3729 172.270 0.335
5.3780 171.893 0.335
5.3831 172.539 0.335
5.3882 173.527 0.336
5.3933 172.210 0.335
5.3984 173.445 0.336
5.4035 174.036 0.337
5.4086 172.551 0.335
5.4137 173.628 0.336
5.4188 174.348 0.337
5.4239 173.337 0.336
5.4290 173.976 0.337
5.4341 174.442 0.337
5.4392 173.679 0.336
5.4443 174.417 0.337
5.4495 175.249 0.338
5.4546 173.826 0.336
5.4597 175.097 0.338
5.4648 175.324 0.338
5.4699 174.788 0.337
5.4750 174.890 0.337
5.4801 175.900 0.338
5.4852 175.236 0.338
5.4903 175.583 0.338
5.4954 176.996 0.339
5.5005 175.995 0.338
5.5056 175.512 0.338
5.5107 176.768 0.339
5.5158 175.854 0.338
5.5209 175.773 0.338
5.5260 177.682 0.340
5.5311 176.092 0.339
5.5362 176.729 0.339
5.5413 176.847 0.339
5.5464 176.227 0.339
5.5515 175.691 0.338
5.5566 177.577 0.340
5.5617 176.809 0.339
5.5668 175.967 0.338
5.5719 178.432 0.341
5.5770 177.190 0.340
5.5821 177.223 0.340
5.5873 178.447 0.341
5.5924 177.215 0.340
5.5975 176.294 0.339
5.6026 178.688 0.341
5.6077 177.683 0.340
5.6128 176.611 0.339
5.6179 178.344 0.341
5.6230 177.326 0.340
5.6281 177.857 0.340
5.6332 178.022 0.340
5.6383 177.576 0.340
5.6434 176.756 0.339
5.6485 178.665 0.341
5.6536 178.105 0.341
5.6587 177.602 0.340
5.6638 178.921 0.341
5.6689 177.499 0.340
5.6740 177.786 0.340
5.6791 179.114 0.341
5.6842 178.348 0.341
5.6893 177.746 0.340
5.6944 179.133 0.342
5.6995 178.342 0.341
5.7046 177.201 0.340
5.7097 179.091 0.341
5.7148 177.909 0.340
5.7199 177.342 0.340
5.7251 178.936 0.341
5.7302 177.960 0.340
5.7353 177.893 0.340
5.7404 178.257 0.341
5.7455 177.423 0.340
5.7506 177.354 0.340
5.7557 178.809 0.341
5.7608 178.244 0.341
5.7659 176.718 0.339
5.7710 179.127 0.341
5.7761 177.462 0.340
5.7812 177.201 0.340
5.7863 178.868 0.341
5.7914 177.399 0.340
5.7965 177.587 0.340
5.8016 178.053 0.340
5.8067 177.947 0.340
5.8118 176.677 0.339
5.8169 178.290 0.341
5.8220 177.245 0.340
5.8271 176.087 0.339
5.8322 178.555 0.341
5.8373 176.721 0.339
5.8424 175.831 0.338
5.8475 177.772 0.340
5.8526 176.549 0.339
5.8577 175.706 0.338
5.8629 177.275 0.340
5.8680 175.624 0.338
5.8731 175.395 0.338
5.8782 177.986 0.340
5.8833 176.066 0.339
5.8884 175.354 0.338
5.8935 176.805 0.339
5.8986 176.654 0.339
5.9037 174.718 0.337
5.9088 176.598 0.339
5.9139 175.288 0.338
5.9190 174.217 0.337
5.9241 175.961 0.338
5.9292 174.701 0.337
5.9343 174.278 0.337
5.9394 175.756 0.338
5.9445 175.518 0.338
5.9496 173.458 0.336
5.9547 175.125 0.338
5.9598 174.811 0.337
5.9649 173.597 0.336
5.9700 175.475 0.338
5.9751 173.781 0.336
5.9802 172.745 0.335
5.9853 174.623 0.337
5.9904 173.876 0.336
5.9955 172.541 0.335
6.0007 173.231 0.336
6.0058 172.641 0.335
6.0109 171.645 0.334
6.0160 173.337 0.336
6.0211 172.602 0.335
6.0262 171.549 0.334
6.0313 173.165 0.336
6.0364 172.195 0.335
6.0415 171.052 0.334
6.0466 172.691 0.335
6.0517 171.557 0.334
6.0568 169.984 0.333
6.0619 171.952 0.335
6.0670 170.833 0.333
6.0721 170.133 0.333
6.0772 171.760 0.334
6.0823 170.911 0.334
6.0874 168.572 0.331
6.0925 171.752 0.334
6.0976 170.651 0.333
6.1027 168.578 0.331
6.1078 170.517 0.333
6.1129 169.703 0.332
6.1180 167.857 0.331
6.1231 169.997 0.333
6.1282 168.691 0.331
6.1333 167.514 0.330
6.1385 169.298 0.332
6.1436 168.734 0.331
6.1487 167.408 0.330
6.1538 168.666 0.331
6.1589 167.998 0.331
6.1640 166.057 0.329
6.1691 167.977 0.331
6.1742 167.234 0.330
6.1793 165.317 0.328
6.1844 167.559 0.330
6.1895 166.282 0.329
6.1946 164.837 0.328
6.1997 166.508 0.329
6.2048 165.747 0.328
6.2099 164.004 0.327
6.2150 166.359 0.329
6.2201 165.149 0.328
6.2252 162.680 0.325
6.2303 166.154 0.329
6.2354 164.563 0.327
6.2405 162.765 0.326
6.2456 165.132 0.328
6.2507 163.395 0.326
6.2558 162.202 0.325
6.2609 163.844 0.327
6.2660 162.879 0.326
6.2711 161.150 0.324
6.2763 163.428 0.326
6.2814 162.540 0.325
6.2865 160.538 0.323
6.2916 162.587 0.325
6.2967 161.950 0.325
6.3018 160.266 0.323
6.3069 162.296 0.325
6.3120 161.381 0.324
6.3171 159.737 0.322
6.3222 160.889 0.324
6.3273 160.035 0.323
6.3324 158.316 0.321
6.3375 159.877 0.323
6.3426 159.682 0.322
6.3477 157.665 0.320
6.3528 159.514 0.322
6.3579 158.783 0.322
6.3630 157.801 0.321
6.3681 158.965 0.322
6.3732 158.348 0.321
6.3783 157.019 0.320
6.3834 157.790 0.321
6.3885 157.404 0.320
6.3936 156.382 0.319
6.3987 157.370 0.320
6.4038 156.381 0.319
6.4089 155.439 0.318
6.4141 156.710 0.319
6.4192 155.730 0.318
6.4243 154.859 0.318
6.4294 155.074 0.318
6.4345 155.206 0.318
6.4396 154.047 0.317
6.4447 154.621 0.317
6.4498 154.021 0.317
6.4549 154.036 0.317
6.4600 153.896 0.317
6.4651 153.975 0.317
6.4702 152.511 0.315
6.4753 153.148 0.316
6.4804 153.877 0.317
6.4855 151.910 0.314
6.4906 152.430 0.315
6.4957 152.503 0.315
6.5008 151.789 0.314
6.5059 152.063 0.315
6.5110 151.556 0.314
6.5161 149.980 0.312
6.5212 151.447 0.314
6.5263 151.055 0.314
6.5314 149.903 0.312
6.5365 150.346 0.313
6.5416 150.505 0.313
6.5467 148.855 0.311
6.5519 149.442 0.312
6.5570 149.706 0.312
6.5621 148.047 0.310
6.5672 148.510 0.311
6.5723 148.329 0.311
6.5774 147.881 0.310
6.5825 147.874 0.310
6.5876 148.054 0.310
6.5927 147.079 0.309
6.5978 146.648 0.309
6.6029 147.114 0.309
6.6080 146.391 0.309
6.6131 146.451 0.309
6.6182 147.134 0.310
6.6233 145.376 0.308
6.6284 145.301 0.308
6.6335 145.227 0.307
6.6386 144.266 0.306
6.6437 144.564 0.307
6.6488 145.096 0.307
6.6539 143.681 0.306
6.6590 143.535 0.306
6.6641 144.805 0.307
6.6692 143.338 0.305
6.6743 143.628 0.306
6.6794 143.295 0.305
6.6845 143.237 0.305
6.6897 141.781 0.304
6.6948 142.568 0.305
6.6999 142.314 0.304
6.7050 141.076 0.303
6.7101 141.948 0.304
6.7152 141.145 0.303
6.7203 140.352 0.302
6.7254 141.421 0.303
6.7305 140.533 0.302
6.7356 139.709 0.302
6.7407 140.307 0.302
6.7458 139.044 0.301
6.7509 139.332 0.301
6.7560 138.997 0.301
6.7611 138.788 0.301
6.7662 138.413 0.300
6.7713 138.268 0.300
6.7764 138.059 0.300
6.7815 137.168 0.299
6.7866 138.090 0.300
6.7917 137.485 0.299
6.7968 136.395 0.298
6.8019 137.803 0.300
6.8070 136.810 0.298
6.8121 135.036 0.297
6.8172 136.375 0.298
6.8223 136.119 0.298
6.8275 134.484 0.296
6.8326 135.730 0.297
6.8377 134.898 0.296
6.8428 134.376 0.296
6.8479 134.882 0.296
6.8530 134.658 0.296
6.8581 133.706 0.295
6.8632 134.533 0.296
6.8683 134.051 0.295
6.8734 132.997 0.294
6.8785 133.189 0.294
6.8836 133.189 0.294
6.8887 132.082 0.293
6.8938 133.066 0.294
6.8989 131.823 0.293
6.9040 130.751 0.292
6.9091 132.367 0.294
6.9142 131.514 0.293
6.9193 130.655 0.292
6.9244 131.604 0.293
6.9295 130.722 0.292
6.9346 130.172 0.291
6.9397 130.911 0.292
6.9448 130.245 0.291
6.9499 129.864 0.291
6.9550 130.142 0.291
6.9601 128.886 0.290
6.9653 128.388 0.289
6.9704 129.381 0.290
6.9755 128.734 0.290
6.9806 127.473 0.288
6.9857 128.800 0.290
6.9908 127.333 0.288
6.9959 126.931 0.287
7.0010 128.306 0.289
7.0061 126.944 0.287
7.0112 126.652 0.287
7.0163 127.260 0.288
7.0214 126.221 0.287
7.0265 125.073 0.285
7.0316 127.087 0.288
7.0367 125.860 0.286
7.0418 124.673 0.285
7.0469 125.958 0.286
7.0520 125.158 0.285
7.0571 124.419 0.285
7.0622 125.396 0.286
7.0673 124.119 0.284
7.0724 123.318 0.283
7.0775 124.609 0.285
7.0826 123.639 0.284
7.0877 122.784 0.283
7.0928 124.068 0.284
7.0979 122.807 0.283
7.1031 122.079 0.282
7.1082 122.732 0.283
7.1133 122.598 0.283
7.1184 121.163 0.281
7.1235 122.194 0.282
7.1286 122.094 0.282
7.1337 120.444 0.280
7.1388 121.642 0.281
7.1439 121.072 0.281
7.1490 119.869 0.279
7.1541 120.773 0.280
7.1592 119.975 0.279
7.1643 119.047 0.278
7.1694 119.983 0.279
7.1745 120.002 0.280
7.1796 118.712 0.278
7.1847 119.315 0.279
7.1898 118.128 0.277
7.1949 117.748 0.277
7.2000 119.061 0.278
7.2051 118.155 0.277
7.2102 116.600 0.276
7.2153 118.096 0.277
7.2204 117.361 0.276
7.2255 115.954 0.275
7.2306 117.452 0.277
7.2357 116.420 0.275
7.2409 116.311 0.275
7.2460 116.956 0.276
7.2511 116.015 0.275
7.2562 114.825 0.273
7.2613 116.397 0.275
7.2664 115.635 0.274
7.2715 114.272 0.273
7.2766 115.158 0.274
7.2817 114.683 0.273
7.2868 113.818 0.272
7.2919 114.880 0.273
7.2970 113.770 0.272
7.3021 113.212 0.271
7.3072 113.766 0.272
7.3123 113.262 0.272
7.3174 111.995 0.270
7.3225 113.577 0.272
7.3276 113.141 0.271
7.3327 111.875 0.270
7.3378 112.766 0.271
7.3429 112.251 0.270
7.3480 111.332 0.269
7.3531 112.095 0.270
7.3582 112.339 0.270
7.3633 110.476 0.268
7.3684 111.144 0.269
7.3735 111.106 0.269
7.3787 109.894 0.267
7.3838 110.929 0.269
7.3889 110.110 0.268
7.3940 109.113 0.267
7.3991 110.669 0.268
7.4042 109.865 0.267
7.4093 108.617 0.266
7.4144 109.883 0.267
7.4195 109.059 0.266
7.4246 107.792 0.265
7.4297 108.798 0.266
7.4348 108.669 0.266
7.4399 107.344 0.264
7.4450 108.357 0.266
7.4501 107.674 0.265
7.4552 106.861 0.264
7.4603 107.678 0.265
7.4654 107.100 0.264
7.4705 106.005 0.263
7.4756 107.128 0.264
7.4807 106.309 0.263
7.4858 105.383 0.262
7.4909 106.023 0.263
7.4960 105.944 0.263
7.5011 104.855 0.261
7.5062 105.589 0.262
7.5113 105.281 0.262
7.5165 104.062 0.260
7.5216 105.344 0.262
7.5267 105.008 0.261
7.5318 103.777 0.260
7.5369 104.471 0.261
7.5420 104.111 0.260
7.5471 103.233 0.259
7.5522 103.919 0.260
7.5573 103.722 0.260
7.5624 102.564 0.258
7.5675 103.036 0.259
7.5726 103.371 0.259
7.5777 102.137 0.258
7.5828 102.753 0.259
7.5879 102.480 0.258
7.5930 101.544 0.257
7.5981 101.630 0.257
7.6032 101.322 0.257
7.6083 100.818 0.256
7.6134 100.917 0.256
7.6185 101.895 0.258
7.6236 100.320 0.256
7.6287 100.939 0.256
7.6338 100.563 0.256
7.6389 99.555 0.255
7.6440 99.814 0.255
7.6491 99.536 0.255
7.6543 99.389 0.254
7.6594 99.263 0.254
7.6645 99.792 0.255
7.6696 98.777 0.254
7.6747 98.546 0.253
7.6798 98.966 0.254
7.6849 98.199 0.253
7.6900 97.994 0.253
7.6951 98.441 0.253
7.7002 97.511 0.252
7.7053 97.615 0.252
7.7104 98.021 0.253
7.7155 96.757 0.251
7.7206 96.702 0.251
7.7257 97.324 0.252
7.7308 96.600 0.251
7.7359 96.540 0.251
7.7410 96.331 0.250
7.7461 96.111 0.250
7.7512 95.550 0.249
7.7563 95.626 0.250
7.7614 95.133 0.249
7.7665 94.964 0.249
7.7716 95.397 0.249
7.7767 95.066 0.249
7.7818 94.590 0.248
7.7869 94.661 0.248
7.7921 94.098 0.248
7.7972 93.734 0.247
7.8023 94.861 0.249
7.8074 93.891 0.247
7.8125 93.045 0.246
7.8176 93.335 0.247
7.8227 93.010 0.246
7.8278 92.580 0.246
7.8329 92.565 0.245
7.8380 92.325 0.245
7.8431 92.267 0.245
7.8482 92.727 0.246
7.8533 91.953 0.245
7.8584 91.212 0.244
7.8635 91.622 0.244
7.8686 91.755 0.244
7.8737 90.540 0.243
7.8788 90.999 0.243
7.8839 90.589 0.243
7.8890 90.122 0.242
7.8941 90.152 0.242
7.8992 89.558 0.241
7.9043 89.505 0.241
7.9094 90.156 0.242
7.9145 89.499 0.241
7.9196 88.830 0.240
7.9247 89.423 0.241
7.9299 89.460 0.241
7.9350 88.416 0.240
7.9401 89.035 0.241
7.9452 88.343 0.240
7.9503 88.111 0.240
7.9554 88.306 0.240
7.9605 88.323 0.240
7.9656 86.727 0.238
7.9707 87.920 0.239
7.9758 87.232 0.238
7.9809 86.865 0.238
7.9860 86.931 0.238
7.9911 86.708 0.238
7.9962 86.430 0.237
8.0013 86.844 0.238
8.0064 86.028 0.237
8.0115 85.500 0.236
8.0166 86.364 0.237
8.0217 85.849 0.236
8.0268 85.475 0.236
8.0319 86.087 0.237
8.0370 85.135 0.235
8.0421 84.493 0.235
8.0472 85.521 0.236
8.0523 84.579 0.235
8.0574 84.100 0.234
8.0625 84.408 0.234
8.0677 84.605 0.235
8.0728 83.500 0.233
8.0779 83.924 0.234
8.0830 83.714 0.233
8.0881 82.967 0.232
8.0932 83.469 0.233
8.0983 83.133 0.233
8.1034 82.301 0.231
8.1085 82.728 0.232
8.1136 82.940 0.232
8.1187 81.913 0.231
8.1238 82.327 0.232
8.1289 81.989 0.231
8.1340 81.103 0.230
8.1391 82.361 0.232
8.1442 81.195 0.230
8.1493 80.279 0.229
8.1544 81.207 0.230
8.1595 81.649 0.231
8.1646 80.038 0.228
8.1697 81.330 0.230
8.1748 80.796 0.229
8.1799 80.126 0.228
8.1850 80.989 0.230
8.1901 80.889 0.229
8.1952 80.340 0.229
8.2003 81.156 0.230
8.2055 80.334 0.229
8.2106 79.440 0.227
8.2157 80.549 0.229
8.2208 80.626 0.229
8.2259 79.661 0.228
8.2310 80.566 0.229
8.2361 81.105 0.230
8.2412 80.292 0.229
8.2463 81.178 0.230
8.2514 80.973 0.230
8.2565 80.442 0.229
8.2616 81.439 0.230
8.2667 81.037 0.230
8.2718 80.757 0.229
8.2769 81.145 0.230
8.2820 81.019 0.230
8.2871 80.546 0.229
8.2922 81.511 0.230
8.2973 81.651 0.231
8.3024 80.888 0.229
8.3075 82.001 0.231
8.3126 82.195 0.231
8.3177 81.518 0.230
8.3228 82.803 0.232
8.3279 82.854 0.232
8.3330 82.466 0.232
8.3382 83.784 0.234
8.3433 83.654 0.233
8.3484 83.510 0.233
8.3535 85.509 0.236
8.3586 85.599 0.236
8.3637 85.898 0.236
8.3688 87.175 0.238
8.3739 88.159 0.240
8.3790 87.764 0.239
8.3841 89.847 0.242
8.3892 91.260 0.244
8.3943 91.411 0.244
8.3994 93.958 0.247
8.4045 95.675 0.250
8.4096 96.238 0.250
8.4147 99.984 0.255
8.4198 101.910 0.258
8.4249 103.866 0.260
8.4300 107.743 0.265
8.4351 111.297 0.269
8.4402 113.863 0.272
8.4453 119.409 0.279
8.4504 123.981 0.284
8.4555 128.359 0.289
8.4606 135.219 0.297
8.4657 139.604 0.301
8.4708 143.042 0.305
8.4760 149.197 0.312
8.4811 150.750 0.313
8.4862 148.851 0.311
8.4913 148.674 0.311
8.4964 143.048 0.305
8.5015 135.490 0.297
8.5066 130.376 0.291
8.5117 123.921 0.284
8.5168 117.736 0.277
8.5219 116.243 0.275
8.5270 113.719 0.272
8.5321 109.923 0.268
8.5372 108.959 0.266
8.5423 105.463 0.262
8.5474 100.436 0.256
8.5525 96.443 0.251
8.5576 90.592 0.243
8.5627 85.069 0.235
8.5678 81.785 0.231
8.5729 78.213 0.226
8.5780 75.114 0.221
8.5831 74.348 0.220
8.5882 72.795 0.218
8.5933 70.952 0.215
8.5984 70.997 0.215
8.6035 70.251 0.214
8.6086 68.951 0.212
8.6138 69.189 0.212
8.6189 68.411 0.211
8.6240 67.359 0.209
8.6291 67.870 0.210
8.6342 67.309 0.209
8.6393 66.622 0.208
