'Id: "" Comment: "" Operator: "Lab Manager" Anode: "Mo" Scantype: "Coupled TwoTheta/Theta" TimePerStep: "1536" X: "9999" Y: "9999" Z: "9999" 
4.0000 0.000 0.268
4.0051 -0.268 0.268
4.0102 -1.156 0.266
4.0153 0.372 0.268
4.0204 0.821 0.269
4.0255 -0.027 0.268
4.0306 1.028 0.269
4.0357 1.167 0.269
4.0408 -0.430 0.267
4.0459 1.078 0.269
4.0510 1.894 0.270
4.0561 0.905 0.268
4.0612 1.784 0.270
4.0663 1.990 0.270
4.0715 1.492 0.269
4.0766 2.529 0.270
4.0817 2.711 0.270
4.0868 1.390 0.269
4.0919 3.016 0.271
4.0970 3.584 0.271
4.1021 2.323 0.270
4.1072 3.620 0.271
4.1123 3.528 0.271
4.1174 2.583 0.270
4.1225 4.491 0.272
4.1276 3.536 0.271
4.1327 3.157 0.271
4.1378 4.595 0.272
4.1429 4.817 0.272
4.1480 3.797 0.271
4.1531 5.258 0.273
4.1582 5.089 0.273
4.1633 4.940 0.272
4.1684 6.116 0.274
4.1735 5.676 0.273
4.1786 5.192 0.273
4.1837 6.171 0.274
4.1888 6.687 0.274
4.1939 5.567 0.273
4.1990 6.693 0.274
4.2041 7.172 0.275
4.2093 6.873 0.274
4.2144 7.457 0.275
4.2195 7.698 0.275
4.2246 7.339 0.275
4.2297 7.677 0.275
4.2348 8.171 0.276
4.2399 8.032 0.275
4.2450 8.514 0.276
4.2501 9.102 0.277
4.2552 8.553 0.276
4.2603 9.164 0.276
4.2654 9.912 0.277
4.2705 9.365 0.277
4.2756 10.279 0.278
4.2807 10.668 0.278
4.2858 9.428 0.277
4.2909 10.326 0.278
4.2960 11.501 0.279
4.3011 10.165 0.277
4.3062 11.123 0.278
4.3113 11.634 0.279
4.3164 10.755 0.278
4.3215 11.844 0.279
4.3266 12.398 0.280
4.3317 12.169 0.279
4.3368 12.557 0.280
4.3419 13.141 0.280
4.3471 12.496 0.280
4.3522 12.766 0.280
4.3573 14.019 0.281
4.3624 14.005 0.281
4.3675 13.976 0.281
4.3726 14.331 0.281
4.3777 14.456 0.282
4.3828 14.474 0.282
4.3879 15.353 0.283
4.3930 14.893 0.282
4.3981 15.145 0.282
4.4032 15.789 0.283
4.4083 15.837 0.283
4.4134 15.507 0.282
4.4185 16.767 0.284
4.4236 16.520 0.284
4.4287 16.551 0.284
4.4338 17.502 0.285
4.4389 17.134 0.284
4.4440 16.767 0.284
4.4491 18.177 0.285
4.4542 18.426 0.285
4.4593 18.055 0.285
4.4644 19.543 0.287
4.4695 18.889 0.286
4.4746 18.412 0.285
4.4797 19.476 0.286
4.4849 20.250 0.287
4.4900 19.597 0.286
4.4951 20.831 0.288
4.5002 20.762 0.288
4.5053 20.438 0.287
4.5104 21.692 0.289
4.5155 20.840 0.288
4.5206 20.886 0.288
4.5257 22.367 0.289
4.5308 22.776 0.290
4.5359 21.773 0.288
4.5410 23.005 0.290
4.5461 22.914 0.290
4.5512 22.976 0.290
4.5563 24.063 0.291
4.5614 24.254 0.291
4.5665 23.923 0.291
4.5716 24.894 0.292
4.5767 24.298 0.291
4.5818 24.259 0.291
4.5869 26.154 0.293
4.5920 26.340 0.293
4.5971 25.432 0.292
4.6022 27.179 0.294
4.6073 26.514 0.293
4.6124 26.483 0.293
4.6175 27.412 0.294
4.6227 27.560 0.294
4.6278 26.965 0.293
4.6329 28.656 0.295
4.6380 28.462 0.295
4.6431 28.026 0.294
4.6482 29.451 0.296
4.6533 29.065 0.296
4.6584 28.257 0.295
4.6635 30.145 0.297
4.6686 29.979 0.296
4.6737 29.383 0.296
4.6788 31.646 0.298
4.6839 31.183 0.298
4.6890 31.088 0.297
4.6941 31.986 0.298
4.6992 32.025 0.298
4.7043 31.501 0.298
4.7094 32.782 0.299
4.7145 32.813 0.299
4.7196 32.474 0.299
4.7247 34.224 0.301
4.7298 33.725 0.300
4.7349 32.636 0.299
4.7400 35.231 0.301
4.7451 35.057 0.301
4.7502 33.975 0.300
4.7553 36.497 0.303
4.7605 36.108 0.302
4.7656 35.356 0.301
4.7707 37.238 0.303
4.7758 36.243 0.302
4.7809 36.520 0.302
4.7860 37.420 0.303
4.7911 37.997 0.304
4.7962 37.156 0.303
4.8013 39.181 0.305
4.8064 39.018 0.305
4.8115 38.175 0.304
4.8166 40.103 0.306
4.8217 39.573 0.305
4.8268 38.879 0.305
4.8319 41.188 0.307
4.8370 41.203 0.307
4.8421 39.565 0.305
4.8472 41.896 0.308
4.8523 41.644 0.307
4.8574 40.876 0.306
4.8625 43.704 0.309
4.8676 43.266 0.309
4.8727 41.908 0.307
4.8778 43.983 0.310
4.8829 43.754 0.309
4.8880 42.831 0.308
4.8931 44.599 0.310
4.8983 45.288 0.311
4.9034 43.784 0.309
4.9085 46.159 0.312
4.9136 46.271 0.312
4.9187 44.730 0.310
4.9238 47.641 0.313
4.9289 47.147 0.312
4.9340 46.268 0.311
4.9391 48.104 0.313
4.9442 48.062 0.313
4.9493 47.750 0.313
4.9544 49.734 0.315
4.9595 48.954 0.314
4.9646 47.986 0.313
4.9697 50.488 0.315
4.9748 49.730 0.315
4.9799 49.247 0.314
4.9850 51.830 0.317
4.9901 51.084 0.316
4.9952 50.197 0.315
5.0003 52.626 0.317
5.0054 52.022 0.317
5.0105 50.673 0.315
5.0156 53.227 0.318
5.0207 53.322 0.318
5.0258 52.014 0.317
5.0309 54.643 0.319
5.0361 54.214 0.319
5.0412 53.405 0.318
5.0463 55.136 0.320
5.0514 55.402 0.320
5.0565 54.202 0.318
5.0616 56.319 0.321
5.0667 55.976 0.320
5.0718 55.010 0.319
5.0769 57.520 0.322
5.0820 57.062 0.321
5.0871 56.019 0.320
5.0922 58.511 0.323
5.0973 57.209 0.321
5.1024 56.492 0.320
5.1075 59.748 0.324
5.1126 59.342 0.323
5.1177 57.699 0.321
5.1228 60.537 0.324
5.1279 60.180 0.324
5.1330 58.650 0.322
5.1381 61.419 0.325
5.1432 61.538 0.325
5.1483 59.361 0.323
5.1534 62.281 0.326
5.1585 62.574 0.326
5.1636 61.084 0.324
5.1687 63.016 0.326
5.1739 62.980 0.326
5.1790 61.803 0.325
5.1841 64.062 0.327
5.1892 63.598 0.327
5.1943 62.753 0.326
5.1994 65.334 0.328
5.2045 64.997 0.328
5.2096 63.707 0.327
5.2147 65.686 0.329
5.2198 66.180 0.329
5.2249 64.414 0.327
5.2300 67.270 0.330
5.2351 66.706 0.329
5.2402 65.487 0.328
5.2453 67.650 0.330
5.2504 67.052 0.330
5.2555 65.885 0.328
5.2606 67.989 0.330
5.2657 68.421 0.331
5.2708 67.394 0.330
5.2759 69.290 0.332
5.2810 68.930 0.331
5.2861 67.837 0.330
5.2912 69.950 0.332
5.2963 70.360 0.332
5.3014 68.933 0.331
5.3065 70.011 0.332
5.3117 70.213 0.332
5.3168 70.344 0.332
5.3219 71.077 0.333
5.3270 71.670 0.333
5.3321 70.265 0.332
5.3372 71.646 0.333
5.3423 72.673 0.334
5.3474 71.367 0.333
5.3525 72.827 0.334
5.3576 73.346 0.335
5.3627 71.922 0.333
5.3678 73.466 0.335
5.3729 73.596 0.335
5.3780 73.266 0.335
5.3831 73.961 0.335
5.3882 74.997 0.336
5.3933 73.729 0.335
5.3984 75.012 0.336
5.4035 75.652 0.337
5.4086 74.215 0.335
5.4137 75.341 0.336
5.4188 76.110 0.337
5.4239 75.147 0.336
5.4290 75.835 0.337
5.4341 76.350 0.337
5.4392 75.635 0.336
5.4443 76.422 0.337
5.4495 77.303 0.338
5.4546 75.928 0.336
5.4597 77.249 0.338
5.4648 77.524 0.338
5.4699 77.038 0.337
5.4750 77.189 0.337
5.4801 78.248 0.338
5.4852 77.633 0.338
5.4903 78.029 0.338
5.4954 79.491 0.339
5.5005 78.539 0.338
5.5056 78.106 0.338
5.5107 79.411 0.339
5.5158 78.547 0.338
5.5209 78.515 0.338
5.5260 80.474 0.340
5.5311 78.933 0.339
5.5362 79.619 0.339
5.5413 79.787 0.339
5.5464 79.217 0.339
5.5515 78.730 0.338
5.5566 80.666 0.340
5.5617 79.948 0.339
5.5668 79.156 0.338
5.5719 81.670 0.341
5.5770 80.478 0.340
5.5821 80.561 0.340
5.5873 81.834 0.341
5.5924 80.653 0.340
5.5975 79.781 0.339
5.6026 82.225 0.341
5.6077 81.271 0.340
5.6128 80.248 0.339
5.6179 82.032 0.341
5.6230 81.064 0.340
5.6281 81.646 0.340
5.6332 81.861 0.340
5.6383 81.465 0.340
5.6434 80.695 0.339
5.6485 82.654 0.341
5.6536 82.145 0.341
5.6587 81.692 0.340
5.6638 83.062 0.341
5.6689 81.691 0.340
5.6740 82.028 0.340
5.6791 83.407 0.341
5.6842 82.692 0.341
5.6893 82.140 0.340
5.6944 83.578 0.342
5.6995 82.837 0.341
5.7046 81.747 0.340
5.7097 83.688 0.341
5.7148 82.557 0.340
5.7199 82.041 0.340
5.7251 83.686 0.341
5.7302 82.761 0.340
5.7353 82.745 0.340
5.7404 83.160 0.341
5.7455 82.377 0.340
5.7506 82.359 0.340
5.7557 83.866 0.341
5.7608 83.352 0.341
5.7659 81.877 0.339
5.7710 84.337 0.341
5.7761 82.724 0.340
5.7812 82.514 0.340
5.7863 84.233 0.341
5.7914 82.815 0.340
5.7965 83.054 0.340
5.8016 83.572 0.340
5.8067 83.518 0.340
5.8118 82.300 0.339
5.8169 83.964 0.341
5.8220 82.971 0.340
5.8271 81.865 0.339
5.8322 84.384 0.341
5.8373 82.603 0.339
5.8424 81.764 0.338
5.8475 83.757 0.340
5.8526 82.586 0.339
5.8577 81.795 0.338
5.8629 83.416 0.340
5.8680 81.817 0.338
5.8731 81.640 0.338
5.8782 84.283 0.340
5.8833 82.416 0.339
5.8884 81.755 0.338
5.8935 83.259 0.339
5.8986 83.161 0.339
5.9037 81.277 0.337
5.9088 83.209 0.339
5.9139 81.952 0.338
5.9190 80.933 0.337
5.9241 82.729 0.338
5.9292 81.522 0.337
5.9343 81.152 0.337
5.9394 82.682 0.338
5.9445 82.497 0.338
5.9496 80.490 0.336
5.9547 82.209 0.338
5.9598 81.948 0.337
5.9649 80.787 0.336
5.9700 82.717 0.338
5.9751 81.077 0.336
5.9802 80.093 0.335
5.9853 82.025 0.337
5.9904 81.331 0.336
5.9955 80.049 0.335
6.0007 80.792 0.336
6.0058 80.255 0.335
6.0109 79.312 0.334
6.0160 81.058 0.336
6.0211 80.375 0.335
6.0262 79.376 0.334
6.0313 81.046 0.336
6.0364 80.129 0.335
6.0415 79.039 0.334
6.0466 80.731 0.335
6.0517 79.651 0.334
6.0568 78.131 0.333
6.0619 80.154 0.335
6.0670 79.088 0.333
6.0721 78.442 0.333
6.0772 80.122 0.334
6.0823 79.327 0.334
6.0874 77.041 0.331
6.0925 80.275 0.334
6.0976 79.228 0.333
6.1027 77.209 0.331
6.1078 79.202 0.333
6.1129 78.442 0.332
6.1180 76.650 0.331
6.1231 78.844 0.333
6.1282 77.592 0.331
6.1333 76.469 0.330
6.1385 78.307 0.332
6.1436 77.798 0.331
6.1487 76.525 0.330
6.1538 77.838 0.331
6.1589 77.224 0.331
6.1640 75.337 0.329
6.1691 77.312 0.331
6.1742 76.623 0.330
6.1793 74.761 0.328
6.1844 77.058 0.330
6.1895 75.835 0.329
6.1946 74.444 0.328
6.1997 76.171 0.329
6.2048 75.464 0.328
6.2099 73.776 0.327
6.2150 76.185 0.329
6.2201 75.030 0.328
6.2252 72.616 0.325
6.2303 76.145 0.329
6.2354 74.609 0.327
6.2405 72.866 0.326
6.2456 75.288 0.328
6.2507 73.606 0.326
6.2558 72.468 0.325
6.2609 74.165 0.327
6.2660 73.255 0.326
6.2711 71.582 0.324
6.2763 73.915 0.326
6.2814 73.082 0.325
6.2865 71.135 0.323
6.2916 73.239 0.325
6.2967 72.658 0.325
6.3018 71.030 0.323
6.3069 73.114 0.325
6.3120 72.255 0.324
6.3171 70.667 0.322
6.3222 71.874 0.324
6.3273 71.075 0.323
6.3324 69.413 0.321
6.3375 71.029 0.323
6.3426 70.890 0.322
6.3477 68.929 0.320
6.3528 70.834 0.322
6.3579 70.158 0.322
6.3630 69.232 0.321
6.3681 70.452 0.322
6.3732 69.891 0.321
6.3783 68.618 0.320
6.3834 69.446 0.321
6.3885 69.115 0.320
6.3936 68.149 0.319
6.3987 69.194 0.320
6.4038 68.261 0.319
6.4089 67.376 0.318
6.4141 68.703 0.319
6.4192 67.779 0.318
6.4243 66.965 0.318
6.4294 67.235 0.318
6.4345 67.424 0.318
6.4396 66.321 0.317
6.4447 66.952 0.317
6.4498 66.409 0.317
6.4549 66.481 0.317
6.4600 66.397 0.317
6.4651 66.533 0.317
6.4702 65.125 0.315
6.4753 65.819 0.316
6.4804 66.605 0.317
6.4855 64.694 0.314
6.4906 65.271 0.315
6.4957 65.402 0.315
6.5008 64.745 0.314
6.5059 65.076 0.315
6.5110 64.625 0.314
6.5161 63.106 0.312
6.5212 64.631 0.314
6.5263 64.296 0.314
6.5314 63.201 0.312
6.5365 63.702 0.313
6.5416 63.918 0.313
6.5467 62.325 0.311
6.5519 62.969 0.312
6.5570 63.291 0.312
6.5621 61.689 0.310
6.5672 62.209 0.311
6.5723 62.086 0.311
6.5774 61.695 0.310
6.5825 61.746 0.310
6.5876 61.984 0.310
6.5927 61.067 0.309
6.5978 60.694 0.309
6.6029 61.217 0.309
6.6080 60.552 0.309
6.6131 60.670 0.309
6.6182 61.410 0.310
6.6233 59.710 0.308
6.6284 59.694 0.308
6.6335 59.677 0.307
6.6386 58.774 0.306
6.6437 59.130 0.307
6.6488 59.720 0.307
6.6539 58.363 0.306
6.6590 58.275 0.306
6.6641 59.604 0.307
6.6692 58.195 0.305
6.6743 58.543 0.306
6.6794 58.269 0.305
6.6845 58.269 0.305
6.6897 56.872 0.304
6.6948 57.717 0.305
6.6999 57.522 0.304
6.7050 56.342 0.303
6.7101 57.273 0.304
6.7152 56.528 0.303
6.7203 55.793 0.302
6.7254 56.921 0.303
6.7305 56.092 0.302
6.7356 55.327 0.302
6.7407 55.984 0.302
6.7458 54.779 0.301
6.7509 55.127 0.301
6.7560 54.850 0.301
6.7611 54.700 0.301
6.7662 54.384 0.300
6.7713 54.298 0.300
6.7764 54.149 0.300
6.7815 53.317 0.299
6.7866 54.298 0.300
6.7917 53.752 0.299
6.7968 52.722 0.298
6.8019 54.189 0.300
6.8070 53.255 0.298
6.8121 51.541 0.297
6.8172 52.939 0.298
6.8223 52.742 0.298
6.8275 51.167 0.296
6.8326 52.473 0.297
6.8377 51.700 0.296
6.8428 51.238 0.296
6.8479 51.802 0.296
6.8530 51.638 0.296
6.8581 50.746 0.295
6.8632 51.633 0.296
6.8683 51.211 0.295
6.8734 50.217 0.294
6.8785 50.469 0.294
6.8836 50.528 0.294
6.8887 49.482 0.293
6.8938 50.525 0.294
6.8989 49.342 0.293
6.9040 48.330 0.292
6.9091 50.007 0.294
6.9142 49.214 0.293
6.9193 48.415 0.292
6.9244 49.424 0.293
6.9295 48.603 0.292
6.9346 48.113 0.291
6.9397 48.912 0.292
6.9448 48.306 0.291
6.9499 47.986 0.291
6.9550 48.324 0.291
6.9601 47.129 0.290
6.9653 46.691 0.289
6.9704 47.745 0.290
6.9755 47.158 0.290
6.9806 45.959 0.288
6.9857 47.346 0.290
6.9908 45.940 0.288
6.9959 45.599 0.287
7.0010 47.034 0.289
7.0061 45.733 0.287
7.0112 45.502 0.287
7.0163 46.171 0.288
7.0214 45.193 0.287
7.0265 44.106 0.285
7.0316 46.181 0.288
7.0367 45.015 0.286
7.0418 43.889 0.285
7.0469 45.236 0.286
7.0520 44.497 0.285
7.0571 43.819 0.285
7.0622 44.857 0.286
7.0673 43.642 0.284
7.0724 42.902 0.283
7.0775 44.254 0.285
7.0826 43.346 0.284
7.0877 42.552 0.283
7.0928 43.898 0.284
7.0979 42.699 0.283
7.1031 42.032 0.282
7.1082 42.747 0.283
7.1133 42.674 0.283
7.1184 41.301 0.281
7.1235 42.394 0.282
7.1286 42.356 0.282
7.1337 40.767 0.280
7.1388 42.027 0.281
7.1439 41.519 0.281
7.1490 40.378 0.279
7.1541 41.344 0.280
7.1592 40.609 0.279
7.1643 39.742 0.278
7.1694 40.741 0.279
7.1745 40.822 0.280
7.1796 39.593 0.278
7.1847 40.259 0.279
7.1898 39.135 0.277
7.1949 38.817 0.277
7.2000 40.192 0.278
7.2051 39.348 0.277
7.2102 37.855 0.276
7.2153 39.414 0.277
7.2204 38.742 0.276
7.2255 37.398 0.275
7.2306 38.958 0.277
7.2357 37.989 0.275
7.2409 37.942 0.275
7.2460 38.650 0.276
7.2511 37.772 0.275
7.2562 36.644 0.273
7.2613 38.279 0.275
7.2664 37.580 0.274
7.2715 36.280 0.273
7.2766 37.229 0.274
7.2817 36.817 0.273
7.2868 36.015 0.272
7.2919 37.140 0.273
7.2970 36.093 0.272
7.3021 35.598 0.271
7.3072 36.215 0.272
7.3123 35.774 0.272
7.3174 34.571 0.270
7.3225 36.216 0.272
7.3276 35.843 0.271
7.3327 34.641 0.270
7.3378 35.595 0.271
7.3429 35.144 0.270
7.3480 34.288 0.269
7.3531 35.115 0.270
7.3582 35.422 0.270
7.3633 33.623 0.268
7.3684 34.355 0.269
7.3735 34.381 0.269
7.3787 33.232 0.267
7.3838 34.331 0.269
7.3889 33.576 0.268
7.3940 32.643 0.267
7.3991 34.262 0.268
7.4042 33.523 0.267
7.4093 32.338 0.266
7.4144 33.668 0.267
7.4195 32.908 0.266
7.4246 31.705 0.265
7.4297 32.775 0.266
7.4348 32.711 0.266
7.4399 31.450 0.264
7.4450 32.527 0.266
7.4501 31.909 0.265
7.4552 31.160 0.264
7.4603 32.041 0.265
7.4654 31.527 0.264
7.4705 30.497 0.263
7.4756 31.685 0.264
7.4807 30.930 0.263
7.4858 30.069 0.262
7.4909 30.774 0.263
7.4960 30.759 0.263
7.5011 29.734 0.261
7.5062 30.533 0.262
7.5113 30.290 0.262
7.5165 29.136 0.260
7.5216 30.483 0.262
7.5267 30.211 0.261
7.5318 29.045 0.260
7.5369 29.805 0.261
7.5420 29.509 0.260
7.5471 28.697 0.259
7.5522 29.448 0.260
7.5573 29.316 0.260
7.5624 28.223 0.258
7.5675 28.761 0.259
7.5726 29.160 0.259
7.5777 27.992 0.258
7.5828 28.673 0.259
7.5879 28.466 0.258
7.5930 27.595 0.257
7.5981 27.746 0.257
7.6032 27.504 0.257
7.6083 27.065 0.256
7.6134 27.229 0.256
7.6185 28.273 0.258
7.6236 26.763 0.256
7.6287 27.449 0.256
7.6338 27.138 0.256
7.6389 26.196 0.255
7.6440 26.521 0.255
7.6491 26.309 0.255
7.6543 26.227 0.254
7.6594 26.167 0.254
7.6645 26.762 0.255
7.6696 25.813 0.254
7.6747 25.648 0.253
7.6798 26.134 0.254
7.6849 25.433 0.253
7.6900 25.295 0.253
7.6951 25.807 0.253
7.7002 24.944 0.252
7.7053 25.114 0.252
7.7104 25.586 0.253
7.7155 24.389 0.251
7.7206 24.400 0.251
7.7257 25.089 0.252
7.7308 24.431 0.251
7.7359 24.438 0.251
7.7410 24.295 0.250
7.7461 24.141 0.250
7.7512 23.647 0.249
7.7563 23.789 0.250
7.7614 23.364 0.249
7.7665 23.261 0.249
7.7716 23.761 0.249
7.7767 23.497 0.249
7.7818 23.087 0.248
7.7869 23.225 0.248
7.7921 22.729 0.248
7.7972 22.432 0.247
7.8023 23.626 0.249
7.8074 22.723 0.247
7.8125 21.944 0.246
7.8176 22.302 0.247
7.8227 22.044 0.246
7.8278 21.681 0.246
7.8329 21.733 0.245
7.8380 21.560 0.245
7.8431 21.570 0.245
7.8482 22.097 0.246
7.8533 21.391 0.245
7.8584 20.717 0.244
7.8635 21.195 0.244
7.8686 21.395 0.244
7.8737 20.248 0.243
7.8788 20.775 0.243
7.8839 20.432 0.243
7.8890 20.033 0.242
7.8941 20.130 0.242
7.8992 19.604 0.241
7.9043 19.619 0.241
7.9094 20.337 0.242
7.9145 19.749 0.241
7.9196 19.147 0.240
7.9247 19.808 0.241
7.9299 19.913 0.241
7.9350 18.937 0.240
7.9401 19.624 0.241
7.9452 19.001 0.240
7.9503 18.837 0.240
7.9554 19.100 0.240
7.9605 19.185 0.240
7.9656 17.657 0.238
7.9707 18.919 0.239
7.9758 18.299 0.238
7.9809 18.001 0.238
7.9860 18.135 0.238
7.9911 17.981 0.238
7.9962 17.770 0.237
8.0013 18.254 0.238
8.0064 17.506 0.237
8.0115 17.046 0.236
8.0166 17.979 0.237
8.0217 17.533 0.236
8.0268 17.228 0.236
8.0319 17.908 0.237
8.0370 17.026 0.235
8.0421 16.452 0.235
8.0472 17.549 0.236
8.0523 16.676 0.235
8.0574 16.265 0.234
8.0625 16.643 0.234
8.0677 16.909 0.235
8.0728 15.873 0.233
8.0779 16.367 0.234
8.0830 16.225 0.233
8.0881 15.548 0.232
8.0932 16.119 0.233
8.0983 15.852 0.233
8.1034 15.090 0.231
8.1085 15.586 0.232
8.1136 15.867 0.232
8.1187 14.910 0.231
8.1238 15.393 0.232
8.1289 15.124 0.231
8.1340 14.308 0.230
8.1391 15.636 0.232
8.1442 14.540 0.230
8.1493 13.693 0.229
8.1544 14.691 0.230
8.1595 15.203 0.231
8.1646 13.661 0.228
8.1697 15.023 0.230
8.1748 14.559 0.229
8.1799 13.959 0.228
8.1850 14.892 0.230
8.1901 14.862 0.229
8.1952 14.383 0.229
8.2003 15.269 0.230
8.2055 14.517 0.229
8.2106 13.693 0.227
8.2157 14.872 0.229
8.2208 15.020 0.229
8.2259 14.125 0.228
8.2310 15.101 0.229
8.2361 15.709 0.230
8.2412 14.967 0.229
8.2463 15.924 0.230
8.2514 15.789 0.230
8.2565 15.328 0.229
8.2616 16.396 0.230
8.2667 16.065 0.230
8.2718 15.855 0.229
8.2769 16.314 0.230
8.2820 16.258 0.230
8.2871 15.856 0.229
8.2922 16.892 0.230
8.2973 17.103 0.231
8.3024 16.411 0.229
8.3075 17.595 0.231
8.3126 17.860 0.231
8.3177 17.253 0.230
8.3228 18.609 0.232
8.3279 18.732 0.232
8.3330 18.415 0.232
8.3382 19.804 0.234
8.3433 19.745 0.233
8.3484 19.673 0.233
8.3535 21.743 0.236
8.3586 21.904 0.236
8.3637 22.275 0.236
8.3688 23.623 0.238
8.3739 24.678 0.240
8.3790 24.354 0.239
8.3841 26.509 0.242
8.3892 27.993 0.244
8.3943 28.216 0.244
8.3994 30.834 0.247
8.4045 32.623 0.250
8.4096 33.258 0.250
8.4147 37.076 0.255
8.4198 39.073 0.258
8.4249 41.101 0.260
8.4300 45.050 0.265
8.4351 48.676 0.269
8.4402 51.314 0.272
8.4453 56.932 0.279
8.4504 61.576 0.284
8.4555 66.026 0.289
8.4606 72.958 0.297
8.4657 77.415 0.301
8.4708 80.926 0.305
8.4760 87.153 0.312
8.4811 88.778 0.313
8.4862 86.951 0.311
8.4913 86.846 0.311
8.4964 81.292 0.305
8.5015 73.807 0.297
8.5066 68.765 0.291
8.5117 62.383 0.284
8.5168 56.271 0.277
8.5219 54.850 0.275
8.5270 52.399 0.272
8.5321 48.675 0.268
8.5372 47.784 0.266
8.5423 44.361 0.262
8.5474 39.406 0.256
8.5525 35.487 0.251
8.5576 29.709 0.243
8.5627 24.258 0.235
8.5678 21.046 0.231
8.5729 17.548 0.226
8.5780 14.522 0.221
8.5831 13.829 0.220
8.5882 12.349 0.218
8.5933 10.580 0.215
8.5984 10.698 0.215
8.6035 10.025 0.214
8.6086 8.797 0.212
8.6138 9.109 0.212
8.6189 8.404 0.211
8.6240 7.426 0.209
8.6291 8.010 0.210
8.6342 7.522 0.209
8.6393 6.909 0.208
8.6444 7.133 0.208
8.6495 6.963 0.208
8.6546 6.228 0.207
8.6597 6.564 0.207
8.6648 6.422 0.207
8.6699 5.493 0.205
8.6750 5.848 0.206
8.6801 6.046 0.206
8.6852 5.231 0.205
8.6903 5.571 0.205
8.6954 5.476 0.205
8.7005 4.836 0.204
8.7056 5.127 0.204
8.7107 4.933 0.204
8.7158 4.917 0.203
8.7209 4.634 0.203
8.7260 4.927 0.203
8.7311 4.794 0.203
8.7362 4.768 0.203
8.7413 4.467 0.202
8.7464 4.050 0.201
8.7516 4.231 0.201
8.7567 4.046 0.201
8.7618 4.052 0.201
8.7669 3.815 0.200
8.7720 4.551 0.201
8.7771 3.574 0.200
8.7822 3.735 0.200
8.7873 4.251 0.201
8.7924 4.017 0.200
8.7975 3.517 0.199
8.8026 3.995 0.200
8.8077 3.371 0.199
8.8128 3.236 0.198
8.8179 3.242 0.198
8.8230 2.875 0.198
8.8281 3.600 0.199
8.8332 3.278 0.198
8.8383 3.017 0.197
8.8434 3.157 0.197
