'Id: "" Comment: "" Operator: "Lab Manager" Anode: "Mo" Scantype: "Coupled TwoTheta/Theta" TimePerStep: "19.2" X: "9999" Y: "9999" Z: "9999" 
10.0000 0.000 2.058
10.0204 -2.021 2.021
10.0408 -2.422 1.985
10.0612 -0.078 2.012
10.0817 3.828 2.060
10.1021 0.338 2.012
10.1225 4.869 2.068
10.1429 3.568 2.049
10.1633 4.662 2.060
10.1837 0.444 2.003
10.2041 1.643 2.016
10.2246 1.696 2.014
10.2450 3.155 2.030
10.2654 0.709 1.996
10.2858 8.054 2.087
10.3062 6.910 2.070
10.3266 3.266 2.021
10.3471 3.320 2.019
10.3675 1.083 1.987
10.3879 5.096 2.036
10.4083 4.265 2.023
10.4287 2.497 1.997
10.4491 0.417 1.967
10.4695 1.878 1.983
10.4900 2.454 1.988
10.5104 -1.448 1.933
10.5308 5.222 2.019
10.5512 -2.222 1.917
10.5716 0.126 1.946
10.5920 6.016 2.021
10.6124 -0.647 1.930
10.6329 1.962 1.962
10.6533 -1.575 1.912
10.6737 2.753 1.967
10.6941 1.196 1.943
10.7145 -1.038 1.910
10.7349 -0.408 1.916
10.7553 0.066 1.919
10.7758 0.124 1.917
10.7962 2.110 1.941
10.8166 -0.957 1.897
10.8370 0.195 1.909
10.8574 -0.111 1.902
10.8778 -2.344 1.868
10.8983 -0.007 1.900
10.9187 -1.004 1.886
10.9391 -1.376 1.880
10.9595 0.753 1.909
10.9799 -1.181 1.881
11.0003 -0.562 1.889
11.0207 -1.871 1.871
11.0412 -0.627 1.887
11.0616 -0.685 1.886
11.0820 3.424 1.941
11.1024 -2.207 1.863
11.1228 -1.483 1.873
11.1432 -1.176 1.876
11.1636 -0.921 1.879
11.1841 0.688 1.901
11.2045 -0.827 1.879
11.2249 0.731 1.900
11.2453 1.768 1.914
11.2657 2.181 1.919
11.2861 -1.261 1.871
11.3065 3.058 1.929
11.3270 0.763 1.897
11.3474 2.322 1.918
11.3678 -1.796 1.860
11.3882 3.305 1.930
11.4086 -2.584 1.848
11.4290 -1.858 1.858
11.4495 0.157 1.885
11.4699 1.546 1.904
11.4903 -0.137 1.880
11.5107 -0.258 1.878
11.5311 0.768 1.892
11.5515 0.439 1.887
11.5719 2.194 1.910
11.5924 1.918 1.906
11.6128 0.080 1.880
11.6332 5.481 1.953
11.6536 3.591 1.927
11.6740 1.597 1.899
11.6944 4.134 1.933
11.7148 4.172 1.933
11.7353 4.574 1.938
11.7557 6.122 1.958
11.7761 4.650 1.938
11.7965 7.448 1.975
11.8169 6.862 1.967
11.8373 4.505 1.935
11.8577 2.668 1.909
11.8782 7.968 1.980
11.8986 2.278 1.903
11.9190 6.015 1.953
11.9394 3.763 1.922
11.9598 9.479 1.998
11.9802 6.811 1.962
12.0007 5.288 1.941
12.0211 9.860 2.001
12.0415 3.129 1.911
12.0619 10.201 2.004
12.0823 7.117 1.963
12.1027 8.720 1.984
12.1231 8.865 1.985
12.1436 7.344 1.965
12.1640 8.010 1.973
12.1844 9.719 1.995
12.2048 6.115 1.947
12.2252 7.980 1.971
12.2456 6.095 1.945
12.2660 9.835 1.994
12.2865 10.346 2.000
12.3069 7.524 1.963
12.3273 9.546 1.989
12.3477 9.433 1.987
12.3681 11.716 2.016
12.3885 5.457 1.933
12.4089 14.251 2.047
12.4294 11.065 2.006
12.4498 7.724 1.961
12.4702 9.591 1.985
12.4906 8.802 1.974
12.5110 9.055 1.977
12.5314 13.474 2.034
12.5519 11.905 2.013
12.5723 11.012 2.001
12.5927 13.870 2.037
12.6131 12.717 2.022
12.6335 10.367 1.991
12.6539 10.308 1.989
12.6743 15.667 2.058
12.6948 10.817 1.995
12.7152 15.186 2.051
12.7356 10.024 1.983
12.7560 14.394 2.039
12.7764 13.607 2.029
12.7968 14.488 2.039
12.8172 13.441 2.025
12.8377 17.863 2.081
12.8581 15.359 2.049
12.8785 14.625 2.039
12.8989 15.507 2.049
12.9193 13.055 2.017
12.9397 16.540 2.061
12.9601 13.828 2.026
12.9806 10.231 1.978
13.0010 18.457 2.083
13.0214 14.339 2.031
13.0418 14.857 2.037
13.0622 13.344 2.017
13.0826 11.206 1.988
13.1031 13.860 2.022
13.1235 16.410 2.054
13.1439 11.824 1.994
13.1643 15.885 2.046
13.1847 12.862 2.006
13.2051 11.871 1.993
13.2255 12.599 2.002
13.2460 13.483 2.012
13.2664 19.680 2.090
13.2868 14.888 2.029
13.3072 14.679 2.026
13.3276 15.980 2.042
13.3480 16.084 2.043
13.3684 17.074 2.054
13.3889 13.116 2.003
13.4093 13.949 2.013
13.4297 16.241 2.042
13.4501 15.825 2.036
13.4705 18.847 2.074
13.4909 15.515 2.031
13.5113 16.610 2.044
13.5318 14.944 2.022
13.5522 15.154 2.024
13.5726 13.281 1.999
13.5930 14.689 2.017
13.6134 18.806 2.068
13.6338 14.277 2.010
13.6543 14.019 2.006
13.6747 14.490 2.011
13.6951 16.055 2.031
13.7155 12.569 1.985
13.7359 12.415 1.982
13.7563 16.273 2.031
13.7767 11.224 1.965
13.7972 15.395 2.019
13.8176 14.513 2.006
13.8380 15.403 2.017
13.8584 15.876 2.023
13.8788 18.015 2.049
13.8992 15.989 2.023
13.9196 13.077 1.984
13.9401 14.592 2.003
13.9605 16.420 2.026
13.9809 12.884 1.979
14.0013 15.806 2.017
14.0217 13.155 1.981
14.0421 12.588 1.973
14.0625 15.980 2.017
14.0830 13.903 1.989
14.1034 16.149 2.017
14.1238 12.718 1.972
14.1442 9.860 1.933
14.1646 11.950 1.960
14.1850 12.374 1.965
14.2055 13.735 1.982
14.2259 11.399 1.950
14.2463 10.938 1.943
14.2667 9.279 1.920
14.2871 11.058 1.943
14.3075 12.472 1.961
14.3279 9.772 1.924
14.3484 14.103 1.981
14.3688 11.039 1.940
14.3892 12.454 1.958
14.4096 11.943 1.950
14.4300 10.962 1.936
14.4504 9.565 1.916
14.4708 10.200 1.924
14.4913 7.397 1.885
14.5117 12.720 1.956
14.5321 5.699 1.860
14.5525 11.074 1.933
14.5729 7.230 1.879
14.5933 6.303 1.866
14.6138 12.356 1.947
14.6342 11.846 1.940
14.6546 10.815 1.925
14.6750 11.295 1.931
14.6954 9.744 1.909
14.7158 6.058 1.857
14.7362 9.299 1.901
14.7567 8.634 1.891
14.7771 6.980 1.867
14.7975 11.159 1.924
14.8179 9.349 1.898
14.8383 3.528 1.815
14.8587 5.520 1.843
14.8791 5.690 1.844
14.8996 8.724 1.886
14.9200 5.352 1.838
14.9404 10.314 1.906
14.9608 6.161 1.847
14.9812 5.081 1.831
15.0016 8.064 1.872
15.0220 7.193 1.859
15.0425 5.802 1.838
15.0629 3.264 1.801
15.0833 6.665 1.849
15.1037 5.326 1.829
15.1241 4.456 1.815
15.1445 2.128 1.781
15.1650 4.904 1.820
15.1854 5.909 1.833
15.2058 5.248 1.823
15.2262 7.348 1.852
15.2466 2.520 1.782
15.2670 7.224 1.848
15.2874 4.793 1.812
15.3079 6.373 1.834
15.3283 6.338 1.833
15.3487 2.345 1.774
15.3691 4.810 1.809
15.3895 3.421 1.788
15.4099 1.877 1.764
15.4303 4.968 1.808
15.4508 3.059 1.779
15.4712 4.223 1.795
15.4916 0.752 1.743
15.5120 0.875 1.744
15.5324 3.550 1.782
15.5528 3.517 1.781
15.5732 -0.214 1.724
15.5937 1.577 1.750
15.6141 2.950 1.769
15.6345 2.710 1.765
15.6549 3.511 1.775
15.6753 4.417 1.788
15.6957 -0.459 1.714
15.7162 2.218 1.753
15.7366 0.676 1.729
15.7570 2.520 1.755
15.7774 4.780 1.788
15.7978 0.948 1.730
15.8182 2.219 1.748
15.8386 2.397 1.749
15.8591 2.835 1.755
15.8795 3.534 1.764
15.8999 3.504 1.762
15.9203 -2.671 1.667
15.9407 5.320 1.787
15.9611 0.291 1.711
15.9815 -3.437 1.652
16.0020 1.430 1.726
16.0224 0.099 1.704
16.0428 -2.169 1.668
16.0632 1.552 1.724
16.0836 -0.351 1.694
16.1040 1.704 1.724
16.1244 3.135 1.745
16.1449 -0.695 1.685
16.1653 5.892 1.783
16.1857 1.177 1.712
16.2061 0.889 1.706
16.2265 1.591 1.716
16.2469 1.564 1.714
16.2674 -0.754 1.677
16.2878 1.303 1.708
16.3082 -0.390 1.680
16.3286 -2.812 1.641
16.3490 0.403 1.691
16.3694 0.234 1.688
16.3898 1.575 1.708
16.4103 1.562 1.707
16.4307 4.258 1.747
16.4511 0.235 1.685
16.4715 3.764 1.738
16.4919 3.335 1.731
16.5123 4.625 1.750
16.5327 7.322 1.789
16.5532 6.164 1.772
16.5736 10.476 1.833
16.5940 12.652 1.863
16.6144 17.901 1.935
16.6348 17.474 1.928
16.6552 12.463 1.859
16.6756 6.411 1.772
16.6961 8.900 1.807
16.7165 9.151 1.810
16.7369 8.411 1.799
16.7573 4.131 1.735
16.7777 3.652 1.727
16.7981 4.320 1.737
16.8186 2.383 1.707
16.8390 0.968 1.684
16.8594 2.626 1.709
16.8798 2.409 1.705
16.9002 5.421 1.750
16.9206 1.715 1.693
16.9410 1.706 1.693
16.9615 0.188 1.668
16.9819 2.524 1.704
17.0023 0.485 1.672
17.0227 1.206 1.682
17.0431 2.032 1.694
17.0635 1.192 1.680
17.0839 -2.044 1.629
17.1044 1.282 1.680
17.1248 0.807 1.672
17.1452 1.894 1.688
17.1656 1.627 1.684
17.1860 5.632 1.744
17.2064 2.449 1.695
17.2268 2.391 1.693
17.2473 5.719 1.743
17.2677 7.536 1.769
17.2881 7.062 1.762
17.3085 9.453 1.796
17.3289 13.459 1.852
17.3493 12.100 1.833
17.3698 14.543 1.866
17.3902 11.987 1.830
17.4106 12.139 1.831
17.4310 9.583 1.794
17.4514 14.163 1.858
17.4718 11.399 1.818
17.4922 7.437 1.760
17.5127 7.850 1.765
17.5331 5.504 1.730
17.5535 6.334 1.741
17.5739 4.508 1.713
17.5943 5.391 1.726
17.6147 2.472 1.680
17.6351 4.762 1.715
17.6556 0.229 1.644
17.6760 3.873 1.700
17.6964 2.361 1.676
17.7168 3.297 1.689
17.7372 2.879 1.682
17.7576 6.107 1.731
17.7780 4.439 1.704
17.7985 0.949 1.649
17.8189 5.532 1.720
17.8393 2.563 1.673
17.8597 2.771 1.676
17.8801 3.396 1.684
17.9005 3.500 1.685
17.9210 4.230 1.696
17.9414 0.376 1.635
17.9618 5.742 1.717
17.9822 3.399 1.680
18.0026 4.650 1.699
18.0230 5.224 1.707
18.0434 5.017 1.703
18.0639 3.352 1.676
18.0843 4.239 1.689
18.1047 7.627 1.740
18.1251 1.952 1.652
18.1455 2.944 1.667
18.1659 2.321 1.656
18.1863 4.824 1.694
18.2068 1.545 1.642
18.2272 2.486 1.656
18.2476 2.645 1.658
18.2680 2.284 1.651
18.2884 3.173 1.664
18.3088 4.219 1.680
18.3292 4.900 1.689
18.3497 5.789 1.702
18.3701 0.741 1.622
18.3905 3.871 1.671
18.4109 3.251 1.660
18.4313 3.516 1.663
18.4517 5.448 1.693
18.4722 6.182 1.703
18.4926 3.479 1.660
18.5130 4.318 1.672
18.5334 1.564 1.628
18.5538 1.570 1.627
18.5742 7.305 1.716
18.5946 3.144 1.650
18.6151 2.630 1.641
18.6355 5.345 1.683
18.6559 7.018 1.708
18.6763 2.390 1.635
18.6967 5.158 1.677
18.7171 5.478 1.681
18.7375 5.120 1.675
18.7580 4.920 1.671
18.7784 1.751 1.620
18.7988 7.123 1.703
18.8192 2.600 1.631
18.8396 2.452 1.628
18.8600 6.576 1.692
18.8804 4.814 1.663
18.9009 1.958 1.617
18.9213 5.665 1.675
18.9417 1.976 1.615
18.9621 5.528 1.671
18.9825 5.485 1.669
19.0029 2.839 1.626
19.0234 5.245 1.663
19.0438 4.630 1.653
19.0642 3.026 1.626
19.0846 0.953 1.592
19.1050 5.912 1.670
19.1254 3.891 1.637
19.1458 1.038 1.590
19.1663 2.768 1.617
19.1867 3.561 1.629
19.2071 2.531 1.611
19.2275 1.188 1.588
19.2479 2.919 1.615
19.2683 4.181 1.635
19.2887 1.589 1.592
19.3092 4.258 1.634
19.3296 5.261 1.649
19.3500 1.628 1.589
19.3704 1.432 1.585
19.3908 3.216 1.613
19.4112 5.001 1.640
19.4316 2.462 1.599
19.4521 0.289 1.562
19.4725 5.719 1.649
19.4929 2.973 1.604
19.5133 2.675 1.598
19.5337 3.991 1.618
19.5541 1.871 1.582
19.5746 5.688 1.643
19.5950 2.786 1.595
19.6154 3.947 1.613
19.6358 6.046 1.645
19.6562 3.301 1.600
19.6766 2.171 1.581
19.6970 4.062 1.610
19.7175 6.422 1.647
19.7379 3.261 1.595
19.7583 2.132 1.575
19.7787 6.992 1.653
19.7991 5.551 1.629
19.8195 6.349 1.640
19.8399 5.637 1.628
19.8604 6.956 1.648
19.8808 7.339 1.653
19.9012 8.138 1.664
19.9216 10.343 1.697
19.9420 15.569 1.775
19.9624 20.692 1.847
19.9828 26.023 1.920
20.0033 41.562 2.119
20.0237 42.154 2.126
20.0441 32.329 2.001
20.0645 30.890 1.981
20.0849 27.524 1.936
20.1053 24.575 1.894
20.1258 35.480 2.038
20.1462 40.708 2.103
20.1666 43.176 2.132
20.1870 41.686 2.113
20.2074 44.779 2.150
20.2278 31.623 1.983
20.2482 40.185 2.092
20.2687 32.915 1.998
20.2891 32.155 1.987
20.3095 27.957 1.931
20.3299 18.812 1.802
20.3503 17.375 1.780
20.3707 20.626 1.826
20.3911 9.867 1.664
20.4116 10.619 1.675
20.4320 6.631 1.610
20.4524 3.789 1.562
20.4728 4.072 1.566
20.4932 2.116 1.532
20.5136 0.785 1.508
20.5340 2.735 1.540
20.5545 1.821 1.523
20.5749 1.845 1.522
20.5953 0.462 1.497
20.6157 0.434 1.495
20.6361 -0.792 1.472
20.6565 1.785 1.516
20.6770 1.184 1.504
20.6974 0.167 1.485
20.7178 1.494 1.507
20.7382 1.519 1.506
20.7586 0.868 1.493
20.7790 1.518 1.503
20.7994 -0.748 1.462
20.8199 -0.983 1.456
20.8403 0.658 1.484
20.8607 2.299 1.511
20.8811 0.815 1.484
20.9015 2.143 1.506
20.9219 0.191 1.470
20.9423 -1.241 1.443
20.9628 -0.016 1.464
20.9832 0.532 1.472
21.0036 -1.471 1.435
21.0240 0.483 1.469
21.0444 0.615 1.469
21.0648 -1.805 1.424
21.0852 1.088 1.475
21.1057 -1.748 1.423
21.1261 2.655 1.500
21.1465 0.705 1.464
21.1669 0.629 1.461
21.1873 0.450 1.456
21.2077 -2.489 1.401
21.2282 -0.064 1.444
21.2486 -1.233 1.422
21.2690 -0.422 1.435
21.2894 1.379 1.466
21.3098 1.201 1.461
21.3302 -0.123 1.436
21.3506 -0.040 1.436
21.3711 -0.583 1.424
21.3915 -0.291 1.428
21.4119 0.417 1.440
21.4323 -0.906 1.414
21.4527 -0.927 1.412
21.4731 1.136 1.448
21.4935 -0.551 1.416
21.5140 0.262 1.429
21.5344 1.492 1.450
21.5548 0.483 1.430
21.5752 0.984 1.438
21.5956 -0.911 1.401
21.6160 2.039 1.454
21.6364 2.593 1.462
21.6569 -0.187 1.410
21.6773 0.211 1.416
21.6977 1.390 1.436
21.7181 1.476 1.436
21.7385 3.125 1.464
21.7589 4.044 1.479
21.7794 7.099 1.530
21.7998 4.530 1.484
21.8202 6.752 1.521
21.8406 5.693 1.501
21.8610 1.769 1.430
21.8814 4.669 1.480
21.9018 7.048 1.520
21.9223 6.875 1.516
21.9427 3.213 1.450
21.9631 2.207 1.430
21.9835 1.201 1.410
22.0039 5.092 1.479
22.0243 2.420 1.429
22.0447 1.571 1.412
22.0652 -1.101 1.360
22.0856 1.228 1.402
22.1060 0.223 1.382
22.1264 1.927 1.412
22.1468 3.527 1.440
22.1672 -1.383 1.346
22.1876 -1.345 1.345
22.2081 -0.490 1.360
22.2285 0.626 1.380
22.2489 -1.071 1.346
22.2693 -0.632 1.353
22.2897 -0.766 1.349
22.3101 0.142 1.365
22.3306 -0.825 1.345
22.3510 2.323 1.403
22.3714 -0.362 1.351
22.3918 -2.265 1.312
22.4122 0.372 1.363
22.4326 0.457 1.364
22.4530 2.417 1.400
22.4735 0.888 1.371
22.4939 1.755 1.387
22.5143 0.799 1.368
22.5347 0.364 1.359
22.5551 2.377 1.397
22.5755 -0.245 1.346
22.5959 0.259 1.355
22.6164 1.595 1.380
22.6368 -0.141 1.346
22.6572 1.040 1.368
22.6776 0.711 1.361
22.6980 -1.598 1.316
22.7184 0.105 1.348
22.7388 0.974 1.364
22.7593 0.697 1.358
22.7797 -0.725 1.330
22.8001 -0.481 1.334
22.8205 0.806 1.358
22.8409 0.634 1.354
22.8613 0.879 1.358
22.8818 3.729 1.411
22.9022 -2.016 1.300
22.9226 0.834 1.355
22.9430 0.872 1.355
22.9634 -3.049 1.277
22.9838 -0.199 1.333
23.0042 3.798 1.408
23.0247 0.294 1.341
23.0451 2.260 1.378
23.0655 -1.087 1.312
23.0859 -1.517 1.303
23.1063 2.220 1.375
23.1267 0.644 1.344
23.1471 2.298 1.375
23.1676 1.296 1.355
23.1880 0.867 1.346
23.2084 0.021 1.329
23.2288 0.530 1.338
23.2492 1.716 1.360
23.2696 0.819 1.342
23.2901 -2.942 1.266
23.3105 -0.775 1.309
23.3309 2.903 1.380
23.3513 0.175 1.327
23.3717 -1.459 1.294
23.3921 1.074 1.343
23.4125 0.795 1.337
23.4330 1.140 1.343
23.4534 2.372 1.366
23.4738 -0.980 1.300
23.4942 0.460 1.328
23.5146 -0.392 1.310
23.5350 1.465 1.346
23.5554 2.021 1.356
23.5759 -0.549 1.305
23.5963 0.735 1.330
23.6167 0.041 1.316
23.6371 0.857 1.331
23.6575 1.101 1.335
23.6779 0.303 1.319
23.6983 -0.339 1.305
23.7188 1.885 1.348
23.7392 0.410 1.319
23.7596 -1.273 1.284
23.7800 1.160 1.332
23.8004 0.154 1.311
23.8208 1.805 1.343
23.8413 0.071 1.308
23.8617 -2.652 1.252
23.8821 1.500 1.335
23.9025 1.485 1.334
23.9229 -0.821 1.287
23.9433 1.404 1.331
23.9637 0.765 1.318
23.9842 -2.062 1.260
24.0046 0.112 1.303
24.0250 2.182 1.343
24.0454 1.856 1.336
24.0658 1.530 1.329
24.0862 -0.098 1.296
24.1066 -0.423 1.288
24.1271 2.220 1.340
24.1475 0.332 1.302
24.1679 0.789 1.310
24.1883 1.401 1.322
24.2087 1.702 1.327
24.2291 -0.081 1.291
24.2495 0.272 1.297
24.2700 3.177 1.353
24.2904 1.135 1.312
24.3108 -0.491 1.279
24.3312 0.956 1.307
24.3516 0.998 1.307
24.3720 0.414 1.295
24.3925 -0.221 1.281
24.4129 0.862 1.302
24.4333 1.737 1.319
24.4537 -1.554 1.251
24.4741 3.645 1.354
24.4945 -2.927 1.220
24.5149 1.178 1.304
24.5354 0.387 1.287
24.5558 -0.924 1.260
24.5762 0.630 1.291
24.5966 -0.629 1.264
24.6170 -1.731 1.240
24.6374 1.230 1.300
24.6578 2.211 1.319
24.6783 0.536 1.284
24.6987 0.737 1.287
24.7191 -1.823 1.234
24.7395 -0.693 1.256
24.7599 -0.345 1.263
24.7803 -0.882 1.251
24.8007 0.248 1.274
24.8212 1.430 1.297
24.8416 0.946 1.286
24.8620 1.295 1.293
24.8824 1.436 1.295
24.9028 2.150 1.308
24.9232 1.822 1.301
24.9437 0.037 1.264
24.9641 0.647 1.276
24.9845 1.102 1.284
25.0049 2.494 1.311
25.0253 -0.541 1.249
25.0457 0.435 1.268
25.0661 -2.443 1.207
25.0866 0.668 1.272
25.1070 -0.231 1.252
25.1274 1.840 1.294
25.1478 2.347 1.303
25.1682 1.918 1.294
25.1886 2.010 1.295
25.2090 -0.711 1.238
25.2295 1.933 1.292
25.2499 2.546 1.303
25.2703 -0.591 1.238
25.2907 1.168 1.274
25.3111 1.365 1.277
25.3315 0.937 1.267
25.3519 -0.689 1.233
25.3724 -1.220 1.220
25.3928 -1.279 1.219
25.4132 1.528 1.278
25.4336 2.043 1.288
25.4540 -1.192 1.221
25.4744 -1.406 1.217
25.4949 1.242 1.273
25.5153 1.286 1.274
25.5357 -1.586 1.214
25.5561 0.230 1.252
25.5765 0.535 1.259
25.5969 1.205 1.273
25.6173 1.406 1.277
25.6378 0.670 1.262
25.6582 0.507 1.259
25.6786 -0.749 1.233
25.6990 0.026 1.249
25.7194 1.061 1.270
25.7398 1.680 1.283
25.7602 -0.096 1.247
25.7807 0.940 1.268
25.8011 0.622 1.262
25.8215 1.607 1.282
25.8419 2.904 1.308
25.8623 4.357 1.337
25.8827 2.582 1.302
25.9031 1.848 1.287
25.9236 2.417 1.299
25.9440 3.975 1.330
25.9644 5.742 1.364
25.9848 4.228 1.335
26.0052 10.422 1.451
26.0256 7.867 1.404
26.0461 10.676 1.456
26.0665 7.600 1.399
26.0869 6.295 1.375
26.1073 4.730 1.345
26.1277 6.550 1.380
26.1481 5.298 1.356
26.1685 5.973 1.369
26.1890 3.471 1.321
26.2094 6.907 1.387
26.2298 2.634 1.304
26.2502 2.737 1.306
26.2706 2.996 1.311
26.2910 1.693 1.285
26.3114 2.421 1.300
26.3319 3.202 1.316
26.3523 3.253 1.317
26.3727 3.982 1.331
26.3931 2.159 1.295
26.4135 1.899 1.290
26.4339 1.378 1.279
26.4543 2.993 1.311
26.4748 1.900 1.290
26.4952 3.255 1.317
26.5156 2.839 1.308
26.5360 4.403 1.339
26.5564 5.289 1.356
26.5768 6.176 1.373
26.5973 9.511 1.435
26.6177 9.461 1.434
26.6381 8.629 1.419
26.6585 12.850 1.494
26.6789 7.280 1.394
26.6993 9.157 1.428
26.7197 11.087 1.463
26.7402 6.663 1.382
26.7606 10.781 1.457
26.7810 15.419 1.538
26.8014 13.079 1.498
26.8218 12.145 1.481
26.8422 12.878 1.494
26.8626 12.830 1.493
26.8831 16.271 1.552
26.9035 13.307 1.501
26.9239 14.614 1.524
26.9443 15.243 1.534
26.9647 17.696 1.575
26.9851 16.764 1.560
27.0055 17.550 1.573
27.0260 16.930 1.562
27.0464 16.051 1.548
27.0668 17.619 1.574
27.0872 18.458 1.587
27.1076 17.527 1.572
27.1280 15.918 1.545
27.1485 18.685 1.591
27.1689 16.713 1.558
27.1893 16.615 1.556
27.2097 17.091 1.564
27.2301 14.494 1.520
27.2505 17.574 1.572
27.2709 19.457 1.603
27.2914 14.256 1.516
27.3118 14.629 1.522
27.3322 13.335 1.500
27.3526 16.208 1.549
27.3730 12.935 1.492
27.3934 12.839 1.491
27.4138 12.431 1.483
27.4343 11.190 1.461
27.4547 13.231 1.497
27.4751 12.615 1.486
27.4955 7.052 1.385
27.5159 7.634 1.396
27.5363 9.832 1.436
27.5567 8.175 1.405
27.5772 8.498 1.411
27.5976 3.404 1.313
27.6180 3.883 1.323
27.6384 5.509 1.354
27.6588 2.291 1.291
27.6792 4.073 1.326
27.6997 4.240 1.329
27.7201 2.585 1.296
27.7405 2.076 1.285
27.7609 2.765 1.299
27.7813 -0.036 1.241
27.8017 2.268 1.288
27.8221 1.499 1.273
27.8426 1.824 1.279
27.8630 0.379 1.249
27.8834 0.860 1.259
27.9038 1.915 1.280
27.9242 0.626 1.253
27.9446 0.796 1.256
27.9650 0.132 1.242
27.9855 0.355 1.247
28.0059 -1.038 1.217
28.0263 0.435 1.248
28.0467 1.074 1.261
28.0671 1.505 1.269
28.0875 1.572 1.270
28.1079 0.806 1.254
28.1284 -0.221 1.233
28.1488 0.992 1.258
28.1692 1.685 1.272
28.1896 0.294 1.242
28.2100 1.091 1.259
28.2304 4.441 1.326
28.2509 3.155 1.300
28.2713 2.650 1.290
28.2917 3.396 1.304
28.3121 7.631 1.386
28.3325 9.888 1.427
28.3529 10.478 1.438
28.3733 13.620 1.493
28.3938 12.283 1.469
28.4142 10.947 1.445
28.4346 9.141 1.412
28.4550 5.253 1.338
28.4754 9.594 1.420
28.4958 10.706 1.440
28.5162 17.756 1.562
28.5367 20.379 1.604
28.5571 24.043 1.663
28.5775 19.791 1.594
28.5979 15.488 1.522
28.6183 11.705 1.456
28.6387 13.808 1.492
28.6591 26.119 1.693
28.6796 38.379 1.872
28.7000 42.566 1.929
28.7204 36.648 1.847
28.7408 29.846 1.748
28.7612 25.700 1.685
28.7816 12.231 1.462
28.8021 10.950 1.439
28.8225 6.596 1.357
28.8429 14.430 1.500
28.8633 19.764 1.589
28.8837 18.327 1.565
28.9041 15.016 1.509
28.9245 13.111 1.475
28.9450 7.300 1.368
